;Scopy version,dda5ec6
;Exported on,Monday January 17/01/2022
;Device,M2K
;Nr of samples,3200
;Sample rate,1e+06
;Tool,Oscilloscope
;Additional Information,
Sample,Time(S),CH1(V),CH2(V)
0,-0.0016,-0.381607,-0.515195
1,-0.001599,-0.383125,-0.515195
2,-0.001598,-0.383125,-0.515195
3,-0.001597,-0.383125,-0.515195
4,-0.001596,-0.383125,-0.515195
5,-0.001595,-0.383125,-0.515195
6,-0.001594,-0.383125,-0.515195
7,-0.001593,-0.383125,-0.516713
8,-0.001592,-0.383125,-0.515195
9,-0.001591,-0.383125,-0.515195
10,-0.00159,-0.383125,-0.515195
11,-0.001589,-0.383125,-0.515195
12,-0.001588,-0.384643,-0.515195
13,-0.001587,-0.383125,-0.515195
14,-0.001586,-0.384643,-0.515195
15,-0.001585,-0.384643,-0.515195
16,-0.001584,-0.384643,-0.515195
17,-0.001583,-0.384643,-0.515195
18,-0.001582,-0.384643,-0.515195
19,-0.001581,-0.383125,-0.515195
20,-0.00158,-0.387679,-0.515195
21,-0.001579,-0.384643,-0.515195
22,-0.001578,-0.386161,-0.515195
23,-0.001577,-0.386161,-0.515195
24,-0.001576,-0.386161,-0.515195
25,-0.001575,-0.386161,-0.515195
26,-0.001574,-0.386161,-0.515195
27,-0.001573,-0.386161,-0.515195
28,-0.001572,-0.386161,-0.515195
29,-0.001571,-0.386161,-0.515195
30,-0.00157,-0.386161,-0.515195
31,-0.001569,-0.386161,-0.515195
32,-0.001568,-0.387679,-0.515195
33,-0.001567,-0.387679,-0.515195
34,-0.001566,-0.387679,-0.515195
35,-0.001565,-0.387679,-0.515195
36,-0.001564,-0.387679,-0.515195
37,-0.001563,-0.387679,-0.515195
38,-0.001562,-0.387679,-0.515195
39,-0.001561,-0.387679,-0.516713
40,-0.00156,-0.387679,-0.515195
41,-0.001559,-0.386161,-0.515195
42,-0.001558,-0.389197,-0.515195
43,-0.001557,-0.387679,-0.515195
44,-0.001556,-0.389197,-0.515195
45,-0.001555,-0.389197,-0.515195
46,-0.001554,-0.389197,-0.515195
47,-0.001553,-0.389197,-0.515195
48,-0.001552,-0.389197,-0.515195
49,-0.001551,-0.389197,-0.515195
50,-0.00155,-0.389197,-0.515195
51,-0.001549,-0.389197,-0.515195
52,-0.001548,-0.389197,-0.515195
53,-0.001547,-0.387679,-0.513677
54,-0.001546,-0.390715,-0.516713
55,-0.001545,-0.390715,-0.515195
56,-0.001544,-0.390715,-0.515195
57,-0.001543,-0.390715,-0.515195
58,-0.001542,-0.390715,-0.515195
59,-0.001541,-0.390715,-0.515195
60,-0.00154,-0.390715,-0.515195
61,-0.001539,-0.390715,-0.515195
62,-0.001538,-0.390715,-0.515195
63,-0.001537,-0.390715,-0.515195
64,-0.001536,-0.390715,-0.515195
65,-0.001535,-0.392233,-0.515195
66,-0.001534,-0.390715,-0.515195
67,-0.001533,-0.392233,-0.515195
68,-0.001532,-0.392233,-0.513677
69,-0.001531,-0.392233,-0.516713
70,-0.00153,-0.392233,-0.515195
71,-0.001529,-0.392233,-0.515195
72,-0.001528,-0.392233,-0.515195
73,-0.001527,-0.392233,-0.515195
74,-0.001526,-0.392233,-0.515195
75,-0.001525,-0.392233,-0.515195
76,-0.001524,-0.392233,-0.515195
77,-0.001523,-0.392233,-0.515195
78,-0.001522,-0.392233,-0.515195
79,-0.001521,-0.390715,-0.515195
80,-0.00152,-0.393751,-0.515195
81,-0.001519,-0.393751,-0.515195
82,-0.001518,-0.393751,-0.515195
83,-0.001517,-0.393751,-0.515195
84,-0.001516,-0.393751,-0.515195
85,-0.001515,-0.393751,-0.515195
86,-0.001514,-0.393751,-0.515195
87,-0.001513,-0.393751,-0.515195
88,-0.001512,-0.393751,-0.515195
89,-0.001511,-0.393751,-0.515195
90,-0.00151,-0.395269,-0.515195
91,-0.001509,-0.395269,-0.515195
92,-0.001508,-0.395269,-0.515195
93,-0.001507,-0.395269,-0.515195
94,-0.001506,-0.395269,-0.515195
95,-0.001505,-0.395269,-0.515195
96,-0.001504,-0.395269,-0.515195
97,-0.001503,-0.395269,-0.515195
98,-0.001502,-0.395269,-0.515195
99,-0.001501,-0.395269,-0.515195
100,-0.0015,-0.395269,-0.518231
101,-0.001499,-0.395269,-0.515195
102,-0.001498,-0.396787,-0.515195
103,-0.001497,-0.395269,-0.515195
104,-0.001496,-0.396787,-0.515195
105,-0.001495,-0.396787,-0.515195
106,-0.001494,-0.396787,-0.515195
107,-0.001493,-0.396787,-0.515195
108,-0.001492,-0.396787,-0.515195
109,-0.001491,-0.396787,-0.515195
110,-0.00149,-0.396787,-0.515195
111,-0.001489,-0.396787,-0.515195
112,-0.001488,-0.396787,-0.515195
113,-0.001487,-0.396787,-0.515195
114,-0.001486,-0.396787,-0.515195
115,-0.001485,-0.396787,-0.515195
116,-0.001484,-0.396787,-0.515195
117,-0.001483,-0.396787,-0.515195
118,-0.001482,-0.398305,-0.515195
119,-0.001481,-0.398305,-0.515195
120,-0.00148,-0.398305,-0.515195
121,-0.001479,-0.398305,-0.515195
122,-0.001478,-0.398305,-0.515195
123,-0.001477,-0.398305,-0.515195
124,-0.001476,-0.398305,-0.515195
125,-0.001475,-0.398305,-0.515195
126,-0.001474,-0.398305,-0.515195
127,-0.001473,-0.398305,-0.515195
128,-0.001472,-0.396787,-0.515195
129,-0.001471,-0.399823,-0.515195
130,-0.00147,-0.396787,-0.515195
131,-0.001469,-0.399823,-0.515195
132,-0.001468,-0.399823,-0.515195
133,-0.001467,-0.399823,-0.515195
134,-0.001466,-0.399823,-0.515195
135,-0.001465,-0.399823,-0.516713
136,-0.001464,-0.399823,-0.515195
137,-0.001463,-0.399823,-0.515195
138,-0.001462,-0.399823,-0.515195
139,-0.001461,-0.399823,-0.515195
140,-0.00146,-0.399823,-0.515195
141,-0.001459,-0.399823,-0.515195
142,-0.001458,-0.399823,-0.515195
143,-0.001457,-0.399823,-0.515195
144,-0.001456,-0.399823,-0.515195
145,-0.001455,-0.402859,-0.515195
146,-0.001454,-0.402859,-0.515195
147,-0.001453,-0.402859,-0.515195
148,-0.001452,-0.398305,-0.516713
149,-0.001451,-0.402859,-0.515195
150,-0.00145,-0.402859,-0.515195
151,-0.001449,-0.402859,-0.515195
152,-0.001448,-0.402859,-0.515195
153,-0.001447,-0.402859,-0.515195
154,-0.001446,-0.402859,-0.516713
155,-0.001445,-0.402859,-0.515195
156,-0.001444,-0.402859,-0.515195
157,-0.001443,-0.402859,-0.515195
158,-0.001442,-0.399823,-0.515195
159,-0.001441,-0.402859,-0.515195
160,-0.00144,-0.405896,-0.515195
161,-0.001439,-0.399823,-0.515195
162,-0.001438,-0.404377,-0.515195
163,-0.001437,-0.399823,-0.515195
164,-0.001436,-0.404377,-0.515195
165,-0.001435,-0.404377,-0.515195
166,-0.001434,-0.404377,-0.515195
167,-0.001433,-0.404377,-0.515195
168,-0.001432,-0.404377,-0.515195
169,-0.001431,-0.404377,-0.515195
170,-0.00143,-0.404377,-0.515195
171,-0.001429,-0.404377,-0.515195
172,-0.001428,-0.404377,-0.515195
173,-0.001427,-0.404377,-0.515195
174,-0.001426,-0.404377,-0.516713
175,-0.001425,-0.404377,-0.515195
176,-0.001424,-0.404377,-0.515195
177,-0.001423,-0.405896,-0.515195
178,-0.001422,-0.405896,-0.515195
179,-0.001421,-0.404377,-0.515195
180,-0.00142,-0.405896,-0.515195
181,-0.001419,-0.405896,-0.515195
182,-0.001418,-0.405896,-0.515195
183,-0.001417,-0.405896,-0.516713
184,-0.001416,-0.405896,-0.515195
185,-0.001415,-0.405896,-0.515195
186,-0.001414,-0.405896,-0.515195
187,-0.001413,-0.405896,-0.513677
188,-0.001412,-0.405896,-0.516713
189,-0.001411,-0.404377,-0.515195
190,-0.00141,-0.407414,-0.516713
191,-0.001409,-0.405896,-0.516713
192,-0.001408,-0.405896,-0.515195
193,-0.001407,-0.407414,-0.515195
194,-0.001406,-0.405896,-0.515195
195,-0.001405,-0.407414,-0.515195
196,-0.001404,-0.407414,-0.515195
197,-0.001403,-0.407414,-0.515195
198,-0.001402,-0.407414,-0.515195
199,-0.001401,-0.407414,-0.515195
200,-0.0014,-0.407414,-0.515195
201,-0.001399,-0.407414,-0.515195
202,-0.001398,-0.407414,-0.515195
203,-0.001397,-0.407414,-0.515195
204,-0.001396,-0.408932,-0.515195
205,-0.001395,-0.405896,-0.515195
206,-0.001394,-0.407414,-0.515195
207,-0.001393,-0.407414,-0.515195
208,-0.001392,-0.407414,-0.515195
209,-0.001391,-0.407414,-0.515195
210,-0.00139,-0.407414,-0.515195
211,-0.001389,-0.408932,-0.515195
212,-0.001388,-0.408932,-0.515195
213,-0.001387,-0.408932,-0.515195
214,-0.001386,-0.408932,-0.515195
215,-0.001385,-0.408932,-0.515195
216,-0.001384,-0.408932,-0.515195
217,-0.001383,-0.408932,-0.515195
218,-0.001382,-0.408932,-0.515195
219,-0.001381,-0.408932,-0.513677
220,-0.00138,-0.408932,-0.516713
221,-0.001379,-0.408932,-0.515195
222,-0.001378,-0.408932,-0.515195
223,-0.001377,-0.407414,-0.515195
224,-0.001376,-0.41045,-0.515195
225,-0.001375,-0.407414,-0.515195
226,-0.001374,-0.408932,-0.515195
227,-0.001373,-0.41045,-0.515195
228,-0.001372,-0.41045,-0.515195
229,-0.001371,-0.41045,-0.515195
230,-0.00137,-0.41045,-0.515195
231,-0.001369,-0.41045,-0.515195
232,-0.001368,-0.41045,-0.515195
233,-0.001367,-0.41045,-0.515195
234,-0.001366,-0.41045,-0.515195
235,-0.001365,-0.41045,-0.515195
236,-0.001364,-0.41045,-0.515195
237,-0.001363,-0.41045,-0.515195
238,-0.001362,-0.41045,-0.515195
239,-0.001361,-0.41045,-0.515195
240,-0.00136,-0.411968,-0.515195
241,-0.001359,-0.408932,-0.515195
242,-0.001358,-0.411968,-0.515195
243,-0.001357,-0.408932,-0.515195
244,-0.001356,-0.411968,-0.515195
245,-0.001355,-0.411968,-0.515195
246,-0.001354,-0.411968,-0.515195
247,-0.001353,-0.411968,-0.515195
248,-0.001352,-0.411968,-0.515195
249,-0.001351,-0.411968,-0.516713
250,-0.00135,-0.411968,-0.513677
251,-0.001349,-0.411968,-0.515195
252,-0.001348,-0.411968,-0.515195
253,-0.001347,-0.411968,-0.515195
254,-0.001346,-0.411968,-0.515195
255,-0.001345,-0.411968,-0.513677
256,-0.001344,-0.411968,-0.516713
257,-0.001343,-0.411968,-0.515195
258,-0.001342,-0.411968,-0.515195
259,-0.001341,-0.411968,-0.515195
260,-0.00134,-0.41045,-0.515195
261,-0.001339,-0.413486,-0.515195
262,-0.001338,-0.41045,-0.515195
263,-0.001337,-0.411968,-0.515195
264,-0.001336,-0.41045,-0.515195
265,-0.001335,-0.411968,-0.515195
266,-0.001334,-0.411968,-0.515195
267,-0.001333,-0.413486,-0.515195
268,-0.001332,-0.413486,-0.515195
269,-0.001331,-0.413486,-0.515195
270,-0.00133,-0.413486,-0.515195
271,-0.001329,-0.413486,-0.515195
272,-0.001328,-0.413486,-0.515195
273,-0.001327,-0.413486,-0.515195
274,-0.001326,-0.413486,-0.515195
275,-0.001325,-0.413486,-0.515195
276,-0.001324,-0.413486,-0.515195
277,-0.001323,-0.413486,-0.515195
278,-0.001322,-0.413486,-0.515195
279,-0.001321,-0.413486,-0.515195
280,-0.00132,-0.413486,-0.515195
281,-0.001319,-0.413486,-0.515195
282,-0.001318,-0.411968,-0.515195
283,-0.001317,-0.415004,-0.515195
284,-0.001316,-0.415004,-0.515195
285,-0.001315,-0.415004,-0.516713
286,-0.001314,-0.415004,-0.513677
287,-0.001313,-0.415004,-0.515195
288,-0.001312,-0.415004,-0.515195
289,-0.001311,-0.415004,-0.515195
290,-0.00131,-0.415004,-0.515195
291,-0.001309,-0.415004,-0.515195
292,-0.001308,-0.415004,-0.515195
293,-0.001307,-0.415004,-0.515195
294,-0.001306,-0.415004,-0.515195
295,-0.001305,-0.415004,-0.515195
296,-0.001304,-0.415004,-0.515195
297,-0.001303,-0.415004,-0.515195
298,-0.001302,-0.415004,-0.515195
299,-0.001301,-0.415004,-0.515195
300,-0.0013,-0.415004,-0.515195
301,-0.001299,-0.415004,-0.512159
302,-0.001298,-0.413486,-0.515195
303,-0.001297,-0.416522,-0.515195
304,-0.001296,-0.415004,-0.515195
305,-0.001295,-0.413486,-0.515195
306,-0.001294,-0.416522,-0.515195
307,-0.001293,-0.416522,-0.515195
308,-0.001292,-0.416522,-0.515195
309,-0.001291,-0.416522,-0.515195
310,-0.00129,-0.416522,-0.515195
311,-0.001289,-0.416522,-0.515195
312,-0.001288,-0.416522,-0.515195
313,-0.001287,-0.416522,-0.515195
314,-0.001286,-0.416522,-0.515195
315,-0.001285,-0.416522,-0.515195
316,-0.001284,-0.416522,-0.515195
317,-0.001283,-0.416522,-0.515195
318,-0.001282,-0.416522,-0.515195
319,-0.001281,-0.416522,-0.515195
320,-0.00128,-0.416522,-0.515195
321,-0.001279,-0.416522,-0.515195
322,-0.001278,-0.416522,-0.515195
323,-0.001277,-0.416522,-0.515195
324,-0.001276,-0.415004,-0.515195
325,-0.001275,-0.41804,-0.515195
326,-0.001274,-0.41804,-0.515195
327,-0.001273,-0.41804,-0.515195
328,-0.001272,-0.415004,-0.515195
329,-0.001271,-0.419558,-0.515195
330,-0.00127,-0.416522,-0.515195
331,-0.001269,-0.416522,-0.515195
332,-0.001268,-0.41804,-0.515195
333,-0.001267,-0.41804,-0.515195
334,-0.001266,-0.41804,-0.515195
335,-0.001265,-0.41804,-0.515195
336,-0.001264,-0.41804,-0.515195
337,-0.001263,-0.41804,-0.515195
338,-0.001262,-0.41804,-0.515195
339,-0.001261,-0.41804,-0.515195
340,-0.00126,-0.41804,-0.515195
341,-0.001259,-0.41804,-0.515195
342,-0.001258,-0.41804,-0.515195
343,-0.001257,-0.41804,-0.513677
344,-0.001256,-0.41804,-0.516713
345,-0.001255,-0.41804,-0.515195
346,-0.001254,-0.41804,-0.515195
347,-0.001253,-0.41804,-0.515195
348,-0.001252,-0.416522,-0.515195
349,-0.001251,-0.419558,-0.515195
350,-0.00125,-0.41804,-0.515195
351,-0.001249,-0.419558,-0.515195
352,-0.001248,-0.419558,-0.515195
353,-0.001247,-0.419558,-0.515195
354,-0.001246,-0.41804,-0.515195
355,-0.001245,-0.41804,-0.515195
356,-0.001244,-0.419558,-0.515195
357,-0.001243,-0.41804,-0.515195
358,-0.001242,-0.419558,-0.515195
359,-0.001241,-0.41804,-0.515195
360,-0.00124,-0.41804,-0.515195
361,-0.001239,-0.419558,-0.515195
362,-0.001238,-0.419558,-0.515195
363,-0.001237,-0.419558,-0.513677
364,-0.001236,-0.419558,-0.516713
365,-0.001235,-0.419558,-0.515195
366,-0.001234,-0.419558,-0.515195
367,-0.001233,-0.419558,-0.515195
368,-0.001232,-0.419558,-0.515195
369,-0.001231,-0.419558,-0.515195
370,-0.00123,-0.419558,-0.515195
371,-0.001229,-0.419558,-0.515195
372,-0.001228,-0.419558,-0.515195
373,-0.001227,-0.419558,-0.515195
374,-0.001226,-0.419558,-0.515195
375,-0.001225,-0.419558,-0.515195
376,-0.001224,-0.41804,-0.515195
377,-0.001223,-0.421076,-0.515195
378,-0.001222,-0.421076,-0.515195
379,-0.001221,-0.419558,-0.515195
380,-0.00122,-0.421076,-0.515195
381,-0.001219,-0.41804,-0.515195
382,-0.001218,-0.421076,-0.515195
383,-0.001217,-0.419558,-0.515195
384,-0.001216,-0.421076,-0.515195
385,-0.001215,-0.421076,-0.515195
386,-0.001214,-0.421076,-0.515195
387,-0.001213,-0.421076,-0.515195
388,-0.001212,-0.421076,-0.516713
389,-0.001211,-0.421076,-0.513677
390,-0.00121,-0.421076,-0.515195
391,-0.001209,-0.421076,-0.515195
392,-0.001208,-0.421076,-0.515195
393,-0.001207,-0.421076,-0.515195
394,-0.001206,-0.421076,-0.515195
395,-0.001205,-0.421076,-0.512159
396,-0.001204,-0.421076,-0.515195
397,-0.001203,-0.421076,-0.515195
398,-0.001202,-0.421076,-0.516713
399,-0.001201,-0.421076,-0.513677
400,-0.0012,-0.421076,-0.515195
401,-0.001199,-0.421076,-0.512159
402,-0.001198,-0.421076,-0.515195
403,-0.001197,-0.421076,-0.515195
404,-0.001196,-0.421076,-0.515195
405,-0.001195,-0.419558,-0.513677
406,-0.001194,-0.422594,-0.516713
407,-0.001193,-0.421076,-0.515195
408,-0.001192,-0.422594,-0.515195
409,-0.001191,-0.422594,-0.515195
410,-0.00119,-0.422594,-0.515195
411,-0.001189,-0.422594,-0.515195
412,-0.001188,-0.422594,-0.515195
413,-0.001187,-0.422594,-0.515195
414,-0.001186,-0.422594,-0.516713
415,-0.001185,-0.422594,-0.515195
416,-0.001184,-0.422594,-0.515195
417,-0.001183,-0.422594,-0.515195
418,-0.001182,-0.422594,-0.516713
419,-0.001181,-0.422594,-0.515195
420,-0.00118,-0.422594,-0.515195
421,-0.001179,-0.422594,-0.515195
422,-0.001178,-0.422594,-0.515195
423,-0.001177,-0.422594,-0.515195
424,-0.001176,-0.422594,-0.515195
425,-0.001175,-0.422594,-0.515195
426,-0.001174,-0.422594,-0.515195
427,-0.001173,-0.422594,-0.516713
428,-0.001172,-0.422594,-0.515195
429,-0.001171,-0.422594,-0.515195
430,-0.00117,-0.422594,-0.515195
431,-0.001169,-0.422594,-0.515195
432,-0.001168,-0.422594,-0.515195
433,-0.001167,-0.422594,-0.515195
434,-0.001166,-0.422594,-0.515195
435,-0.001165,-0.422594,-0.515195
436,-0.001164,-0.424112,-0.515195
437,-0.001163,-0.424112,-0.516713
438,-0.001162,-0.424112,-0.515195
439,-0.001161,-0.422594,-0.515195
440,-0.00116,-0.422594,-0.515195
441,-0.001159,-0.422594,-0.515195
442,-0.001158,-0.424112,-0.515195
443,-0.001157,-0.424112,-0.515195
444,-0.001156,-0.422594,-0.515195
445,-0.001155,-0.424112,-0.515195
446,-0.001154,-0.424112,-0.515195
447,-0.001153,-0.424112,-0.515195
448,-0.001152,-0.424112,-0.515195
449,-0.001151,-0.424112,-0.515195
450,-0.00115,-0.424112,-0.515195
451,-0.001149,-0.424112,-0.515195
452,-0.001148,-0.424112,-0.515195
453,-0.001147,-0.424112,-0.515195
454,-0.001146,-0.424112,-0.515195
455,-0.001145,-0.424112,-0.515195
456,-0.001144,-0.424112,-0.515195
457,-0.001143,-0.424112,-0.515195
458,-0.001142,-0.424112,-0.515195
459,-0.001141,-0.424112,-0.515195
460,-0.00114,-0.424112,-0.515195
461,-0.001139,-0.424112,-0.516713
462,-0.001138,-0.424112,-0.515195
463,-0.001137,-0.424112,-0.515195
464,-0.001136,-0.424112,-0.515195
465,-0.001135,-0.424112,-0.515195
466,-0.001134,-0.424112,-0.515195
467,-0.001133,-0.424112,-0.515195
468,-0.001132,-0.424112,-0.515195
469,-0.001131,-0.424112,-0.515195
470,-0.00113,-0.427148,-0.515195
471,-0.001129,-0.422594,-0.515195
472,-0.001128,-0.424112,-0.515195
473,-0.001127,-0.422594,-0.515195
474,-0.001126,-0.427148,-0.515195
475,-0.001125,-0.424112,-0.515195
476,-0.001124,-0.427148,-0.515195
477,-0.001123,-0.422594,-0.515195
478,-0.001122,-0.424112,-0.515195
479,-0.001121,-0.427148,-0.515195
480,-0.00112,-0.422594,-0.515195
481,-0.001119,-0.424112,-0.513677
482,-0.001118,-0.424112,-0.513677
483,-0.001117,-0.424112,-0.513677
484,-0.001116,-0.424112,-0.513677
485,-0.001115,-0.427148,-0.513677
486,-0.001114,-0.427148,-0.515195
487,-0.001113,-0.427148,-0.516713
488,-0.001112,-0.427148,-0.515195
489,-0.001111,-0.427148,-0.515195
490,-0.00111,-0.427148,-0.515195
491,-0.001109,-0.427148,-0.515195
492,-0.001108,-0.427148,-0.512159
493,-0.001107,-0.427148,-0.515195
494,-0.001106,-0.427148,-0.515195
495,-0.001105,-0.427148,-0.515195
496,-0.001104,-0.427148,-0.515195
497,-0.001103,-0.427148,-0.513677
498,-0.001102,-0.427148,-0.515195
499,-0.001101,-0.427148,-0.515195
500,-0.0011,-0.427148,-0.515195
501,-0.001099,-0.427148,-0.515195
502,-0.001098,-0.427148,-0.515195
503,-0.001097,-0.427148,-0.515195
504,-0.001096,-0.424112,-0.513677
505,-0.001095,-0.430184,-0.516713
506,-0.001094,-0.427148,-0.515195
507,-0.001093,-0.427148,-0.515195
508,-0.001092,-0.427148,-0.515195
509,-0.001091,-0.424112,-0.513677
510,-0.00109,-0.428666,-0.516713
511,-0.001089,-0.428666,-0.515195
512,-0.001088,-0.427148,-0.515195
513,-0.001087,-0.428666,-0.515195
514,-0.001086,-0.428666,-0.513677
515,-0.001085,-0.428666,-0.515195
516,-0.001084,-0.428666,-0.515195
517,-0.001083,-0.428666,-0.515195
518,-0.001082,-0.428666,-0.515195
519,-0.001081,-0.428666,-0.516713
520,-0.00108,-0.428666,-0.513677
521,-0.001079,-0.428666,-0.515195
522,-0.001078,-0.428666,-0.515195
523,-0.001077,-0.428666,-0.515195
524,-0.001076,-0.428666,-0.513677
525,-0.001075,-0.428666,-0.516713
526,-0.001074,-0.428666,-0.515195
527,-0.001073,-0.428666,-0.515195
528,-0.001072,-0.428666,-0.515195
529,-0.001071,-0.428666,-0.515195
530,-0.00107,-0.428666,-0.515195
531,-0.001069,-0.430184,-0.515195
532,-0.001068,-0.427148,-0.515195
533,-0.001067,-0.427148,-0.515195
534,-0.001066,-0.430184,-0.515195
535,-0.001065,-0.428666,-0.515195
536,-0.001064,-0.427148,-0.515195
537,-0.001063,-0.430184,-0.515195
538,-0.001062,-0.430184,-0.515195
539,-0.001061,-0.430184,-0.515195
540,-0.00106,-0.428666,-0.515195
541,-0.001059,-0.427148,-0.515195
542,-0.001058,-0.428666,-0.515195
543,-0.001057,-0.428666,-0.515195
544,-0.001056,-0.428666,-0.515195
545,-0.001055,-0.430184,-0.515195
546,-0.001054,-0.430184,-0.515195
547,-0.001053,-0.430184,-0.515195
548,-0.001052,-0.430184,-0.515195
549,-0.001051,-0.430184,-0.515195
550,-0.00105,-0.430184,-0.515195
551,-0.001049,-0.430184,-0.515195
552,-0.001048,-0.430184,-0.515195
553,-0.001047,-0.430184,-0.515195
554,-0.001046,-0.430184,-0.515195
555,-0.001045,-0.430184,-0.516713
556,-0.001044,-0.430184,-0.513677
557,-0.001043,-0.430184,-0.515195
558,-0.001042,-0.430184,-0.515195
559,-0.001041,-0.430184,-0.515195
560,-0.00104,-0.430184,-0.515195
561,-0.001039,-0.430184,-0.515195
562,-0.001038,-0.430184,-0.515195
563,-0.001037,-0.430184,-0.515195
564,-0.001036,-0.430184,-0.515195
565,-0.001035,-0.430184,-0.515195
566,-0.001034,-0.428666,-0.515195
567,-0.001033,-0.43322,-0.515195
568,-0.001032,-0.428666,-0.515195
569,-0.001031,-0.430184,-0.516713
570,-0.00103,-0.430184,-0.515195
571,-0.001029,-0.430184,-0.515195
572,-0.001028,-0.430184,-0.515195
573,-0.001027,-0.430184,-0.515195
574,-0.001026,-0.428666,-0.515195
575,-0.001025,-0.431702,-0.515195
576,-0.001024,-0.430184,-0.515195
577,-0.001023,-0.431702,-0.515195
578,-0.001022,-0.430184,-0.515195
579,-0.001021,-0.431702,-0.515195
580,-0.00102,-0.431702,-0.515195
581,-0.001019,-0.428666,-0.515195
582,-0.001018,-0.431702,-0.516713
583,-0.001017,-0.431702,-0.516713
584,-0.001016,-0.428666,-0.515195
585,-0.001015,-0.431702,-0.515195
586,-0.001014,-0.431702,-0.515195
587,-0.001013,-0.431702,-0.515195
588,-0.001012,-0.431702,-0.515195
589,-0.001011,-0.430184,-0.515195
590,-0.00101,-0.43322,-0.515195
591,-0.001009,-0.428666,-0.516713
592,-0.001008,-0.431702,-0.513677
593,-0.001007,-0.431702,-0.515195
594,-0.001006,-0.431702,-0.515195
595,-0.001005,-0.431702,-0.515195
596,-0.001004,-0.431702,-0.515195
597,-0.001003,-0.431702,-0.516713
598,-0.001002,-0.431702,-0.513677
599,-0.001001,-0.431702,-0.515195
600,-0.001,-0.431702,-0.515195
601,-0.000999,-0.431702,-0.515195
602,-0.000998,-0.431702,-0.515195
603,-0.000997,-0.431702,-0.515195
604,-0.000996,-0.431702,-0.515195
605,-0.000995,-0.431702,-0.515195
606,-0.000994,-0.431702,-0.515195
607,-0.000993,-0.431702,-0.515195
608,-0.000992,-0.431702,-0.515195
609,-0.000991,-0.431702,-0.515195
610,-0.00099,-0.43322,-0.515195
611,-0.000989,-0.431702,-0.515195
612,-0.000988,-0.431702,-0.515195
613,-0.000987,-0.43322,-0.516713
614,-0.000986,-0.430184,-0.516713
615,-0.000985,-0.431702,-0.515195
616,-0.000984,-0.431702,-0.515195
617,-0.000983,-0.431702,-0.515195
618,-0.000982,-0.431702,-0.515195
619,-0.000981,-0.431702,-0.518231
620,-0.00098,-0.43322,-0.515195
621,-0.000979,-0.430184,-0.515195
622,-0.000978,-0.43322,-0.515195
623,-0.000977,-0.43322,-0.515195
624,-0.000976,-0.43322,-0.515195
625,-0.000975,-0.43322,-0.515195
626,-0.000974,-0.43322,-0.515195
627,-0.000973,-0.43322,-0.515195
628,-0.000972,-0.43322,-0.515195
629,-0.000971,-0.43322,-0.516713
630,-0.00097,-0.43322,-0.515195
631,-0.000969,-0.43322,-0.515195
632,-0.000968,-0.43322,-0.515195
633,-0.000967,-0.43322,-0.515195
634,-0.000966,-0.43322,-0.516713
635,-0.000965,-0.43322,-0.516713
636,-0.000964,-0.43322,-0.516713
637,-0.000963,-0.43322,-0.515195
638,-0.000962,-0.43322,-0.516713
639,-0.000961,-0.43322,-0.515195
640,-0.00096,-0.43322,-0.515195
641,-0.000959,-0.43322,-0.515195
642,-0.000958,-0.43322,-0.516713
643,-0.000957,-0.43322,-0.513677
644,-0.000956,-0.43322,-0.515195
645,-0.000955,-0.43322,-0.515195
646,-0.000954,-0.43322,-0.515195
647,-0.000953,-0.43322,-0.513677
648,-0.000952,-0.43322,-0.516713
649,-0.000951,-0.43322,-0.515195
650,-0.00095,-0.43322,-0.515195
651,-0.000949,-0.43322,-0.515195
652,-0.000948,-0.43322,-0.515195
653,-0.000947,-0.43322,-0.515195
654,-0.000946,-0.43322,-0.515195
655,-0.000945,-0.43322,-0.515195
656,-0.000944,-0.43322,-0.516713
657,-0.000943,-0.434738,-0.515195
658,-0.000942,-0.43322,-0.515195
659,-0.000941,-0.43322,-0.515195
660,-0.00094,-0.43322,-0.515195
661,-0.000939,-0.434738,-0.515195
662,-0.000938,-0.431702,-0.515195
663,-0.000937,-0.434738,-0.515195
664,-0.000936,-0.434738,-0.515195
665,-0.000935,-0.434738,-0.516713
666,-0.000934,-0.434738,-0.515195
667,-0.000933,-0.434738,-0.516713
668,-0.000932,-0.434738,-0.516713
669,-0.000931,-0.434738,-0.513677
670,-0.00093,-0.434738,-0.515195
671,-0.000929,-0.434738,-0.515195
672,-0.000928,-0.434738,-0.515195
673,-0.000927,-0.434738,-0.515195
674,-0.000926,-0.434738,-0.515195
675,-0.000925,-0.434738,-0.515195
676,-0.000924,-0.434738,-0.515195
677,-0.000923,-0.434738,-0.515195
678,-0.000922,-0.434738,-0.515195
679,-0.000921,-0.434738,-0.515195
680,-0.00092,-0.434738,-0.515195
681,-0.000919,-0.434738,-0.515195
682,-0.000918,-0.434738,-0.515195
683,-0.000917,-0.434738,-0.515195
684,-0.000916,-0.434738,-0.516713
685,-0.000915,-0.434738,-0.515195
686,-0.000914,-0.43322,-0.515195
687,-0.000913,-0.437774,-0.515195
688,-0.000912,-0.43322,-0.516713
689,-0.000911,-0.434738,-0.515195
690,-0.00091,-0.434738,-0.515195
691,-0.000909,-0.434738,-0.515195
692,-0.000908,-0.434738,-0.516713
693,-0.000907,-0.434738,-0.516713
694,-0.000906,-0.434738,-0.515195
695,-0.000905,-0.434738,-0.515195
696,-0.000904,-0.434738,-0.516713
697,-0.000903,-0.434738,-0.516713
698,-0.000902,-0.434738,-0.515195
699,-0.000901,-0.434738,-0.515195
700,-0.0009,-0.434738,-0.515195
701,-0.000899,-0.43322,-0.515195
702,-0.000898,-0.436256,-0.515195
703,-0.000897,-0.436256,-0.515195
704,-0.000896,-0.434738,-0.515195
705,-0.000895,-0.434738,-0.515195
706,-0.000894,-0.43322,-0.515195
707,-0.000893,-0.436256,-0.515195
708,-0.000892,-0.436256,-0.515195
709,-0.000891,-0.436256,-0.515195
710,-0.00089,-0.43322,-0.515195
711,-0.000889,-0.434738,-0.515195
712,-0.000888,-0.434738,-0.515195
713,-0.000887,-0.436256,-0.515195
714,-0.000886,-0.436256,-0.515195
715,-0.000885,-0.434738,-0.515195
716,-0.000884,-0.436256,-0.515195
717,-0.000883,-0.436256,-0.515195
718,-0.000882,-0.436256,-0.515195
719,-0.000881,-0.436256,-0.515195
720,-0.00088,-0.436256,-0.515195
721,-0.000879,-0.436256,-0.515195
722,-0.000878,-0.436256,-0.515195
723,-0.000877,-0.436256,-0.515195
724,-0.000876,-0.436256,-0.515195
725,-0.000875,-0.436256,-0.515195
726,-0.000874,-0.436256,-0.515195
727,-0.000873,-0.434738,-0.515195
728,-0.000872,-0.436256,-0.515195
729,-0.000871,-0.436256,-0.515195
730,-0.00087,-0.434738,-0.515195
731,-0.000869,-0.436256,-0.515195
732,-0.000868,-0.436256,-0.515195
733,-0.000867,-0.436256,-0.515195
734,-0.000866,-0.436256,-0.516713
735,-0.000865,-0.436256,-0.515195
736,-0.000864,-0.436256,-0.512159
737,-0.000863,-0.436256,-0.515195
738,-0.000862,-0.436256,-0.515195
739,-0.000861,-0.436256,-0.515195
740,-0.00086,-0.436256,-0.515195
741,-0.000859,-0.436256,-0.515195
742,-0.000858,-0.436256,-0.515195
743,-0.000857,-0.436256,-0.515195
744,-0.000856,-0.436256,-0.515195
745,-0.000855,-0.436256,-0.515195
746,-0.000854,-0.436256,-0.515195
747,-0.000853,-0.436256,-0.515195
748,-0.000852,-0.434738,-0.516713
749,-0.000851,-0.437774,-0.516713
750,-0.00085,-0.436256,-0.515195
751,-0.000849,-0.436256,-0.515195
752,-0.000848,-0.436256,-0.515195
753,-0.000847,-0.436256,-0.515195
754,-0.000846,-0.436256,-0.515195
755,-0.000845,-0.436256,-0.515195
756,-0.000844,-0.436256,-0.515195
757,-0.000843,-0.436256,-0.515195
758,-0.000842,-0.434738,-0.515195
759,-0.000841,-0.437774,-0.516713
760,-0.00084,-0.436256,-0.515195
761,-0.000839,-0.436256,-0.516713
762,-0.000838,-0.437774,-0.513677
763,-0.000837,-0.437774,-0.515195
764,-0.000836,-0.437774,-0.515195
765,-0.000835,-0.437774,-0.515195
766,-0.000834,-0.437774,-0.515195
767,-0.000833,-0.437774,-0.515195
768,-0.000832,-0.436256,-0.515195
769,-0.000831,-0.437774,-0.518231
770,-0.00083,-0.437774,-0.515195
771,-0.000829,-0.436256,-0.516713
772,-0.000828,-0.436256,-0.516713
773,-0.000827,-0.437774,-0.513677
774,-0.000826,-0.437774,-0.516713
775,-0.000825,-0.437774,-0.515195
776,-0.000824,-0.437774,-0.516713
777,-0.000823,-0.437774,-0.515195
778,-0.000822,-0.437774,-0.515195
779,-0.000821,-0.437774,-0.518231
780,-0.00082,-0.437774,-0.515195
781,-0.000819,-0.437774,-0.515195
782,-0.000818,-0.437774,-0.516713
783,-0.000817,-0.437774,-0.516713
784,-0.000816,-0.437774,-0.518231
785,-0.000815,-0.437774,-0.515195
786,-0.000814,-0.437774,-0.516713
787,-0.000813,-0.437774,-0.515195
788,-0.000812,-0.437774,-0.516713
789,-0.000811,-0.437774,-0.513677
790,-0.00081,-0.437774,-0.516713
791,-0.000809,-0.437774,-0.516713
792,-0.000808,-0.437774,-0.515195
793,-0.000807,-0.437774,-0.515195
794,-0.000806,-0.437774,-0.515195
795,-0.000805,-0.437774,-0.515195
796,-0.000804,-0.437774,-0.516713
797,-0.000803,-0.437774,-0.516713
798,-0.000802,-0.437774,-0.516713
799,-0.000801,-0.437774,-0.513677
800,-0.0008,-0.437774,-0.516713
801,-0.000799,-0.437774,-0.518231
802,-0.000798,-0.437774,-0.516713
803,-0.000797,-0.437774,-0.516713
804,-0.000796,-0.437774,-0.515195
805,-0.000795,-0.437774,-0.516713
806,-0.000794,-0.437774,-0.516713
807,-0.000793,-0.437774,-0.516713
808,-0.000792,-0.437774,-0.515195
809,-0.000791,-0.437774,-0.515195
810,-0.00079,-0.437774,-0.515195
811,-0.000789,-0.437774,-0.515195
812,-0.000788,-0.439292,-0.515195
813,-0.000787,-0.436256,-0.515195
814,-0.000786,-0.437774,-0.515195
815,-0.000785,-0.436256,-0.515195
816,-0.000784,-0.439292,-0.515195
817,-0.000783,-0.437774,-0.515195
818,-0.000782,-0.437774,-0.515195
819,-0.000781,-0.439292,-0.515195
820,-0.00078,-0.436256,-0.515195
821,-0.000779,-0.437774,-0.516713
822,-0.000778,-0.437774,-0.515195
823,-0.000777,-0.437774,-0.515195
824,-0.000776,-0.437774,-0.516713
825,-0.000775,-0.439292,-0.516713
826,-0.000774,-0.437774,-0.515195
827,-0.000773,-0.439292,-0.516713
828,-0.000772,-0.437774,-0.516713
829,-0.000771,-0.437774,-0.516713
830,-0.00077,-0.439292,-0.515195
831,-0.000769,-0.439292,-0.515195
832,-0.000768,-0.439292,-0.515195
833,-0.000767,-0.437774,-0.516713
834,-0.000766,-0.440811,-0.515195
835,-0.000765,-0.437774,-0.515195
836,-0.000764,-0.439292,-0.515195
837,-0.000763,-0.439292,-0.515195
838,-0.000762,-0.439292,-0.515195
839,-0.000761,-0.439292,-0.515195
840,-0.00076,-0.439292,-0.515195
841,-0.000759,-0.439292,-0.515195
842,-0.000758,-0.439292,-0.516713
843,-0.000757,-0.439292,-0.518231
844,-0.000756,-0.439292,-0.515195
845,-0.000755,-0.439292,-0.515195
846,-0.000754,-0.439292,-0.515195
847,-0.000753,-0.439292,-0.516713
848,-0.000752,-0.439292,-0.516713
849,-0.000751,-0.439292,-0.515195
850,-0.00075,-0.439292,-0.515195
851,-0.000749,-0.439292,-0.516713
852,-0.000748,-0.439292,-0.515195
853,-0.000747,-0.439292,-0.515195
854,-0.000746,-0.439292,-0.516713
855,-0.000745,-0.439292,-0.515195
856,-0.000744,-0.439292,-0.515195
857,-0.000743,-0.439292,-0.518231
858,-0.000742,-0.439292,-0.515195
859,-0.000741,-0.439292,-0.515195
860,-0.00074,-0.439292,-0.515195
861,-0.000739,-0.439292,-0.515195
862,-0.000738,-0.439292,-0.515195
863,-0.000737,-0.439292,-0.515195
864,-0.000736,-0.439292,-0.516713
865,-0.000735,-0.439292,-0.516713
866,-0.000734,-0.439292,-0.515195
867,-0.000733,-0.439292,-0.515195
868,-0.000732,-0.439292,-0.515195
869,-0.000731,-0.439292,-0.515195
870,-0.00073,-0.439292,-0.515195
871,-0.000729,-0.439292,-0.515195
872,-0.000728,-0.439292,-0.515195
873,-0.000727,-0.439292,-0.515195
874,-0.000726,-0.437774,-0.515195
875,-0.000725,-0.440811,-0.515195
876,-0.000724,-0.439292,-0.515195
877,-0.000723,-0.439292,-0.515195
878,-0.000722,-0.439292,-0.515195
879,-0.000721,-0.439292,-0.515195
880,-0.00072,-0.440811,-0.515195
881,-0.000719,-0.440811,-0.515195
882,-0.000718,-0.440811,-0.516713
883,-0.000717,-0.439292,-0.516713
884,-0.000716,-0.439292,-0.516713
885,-0.000715,-0.437774,-0.516713
886,-0.000714,-0.440811,-0.516713
887,-0.000713,-0.440811,-0.515195
888,-0.000712,-0.440811,-0.515195
889,-0.000711,-0.439292,-0.515195
890,-0.00071,-0.439292,-0.515195
891,-0.000709,-0.440811,-0.515195
892,-0.000708,-0.440811,-0.515195
893,-0.000707,-0.440811,-0.515195
894,-0.000706,-0.440811,-0.515195
895,-0.000705,-0.437774,-0.515195
896,-0.000704,-0.440811,-0.515195
897,-0.000703,-0.439292,-0.515195
898,-0.000702,-0.439292,-0.515195
899,-0.000701,-0.440811,-0.515195
900,-0.0007,-0.440811,-0.515195
901,-0.000699,-0.440811,-0.515195
902,-0.000698,-0.440811,-0.515195
903,-0.000697,-0.440811,-0.515195
904,-0.000696,-0.440811,-0.516713
905,-0.000695,-0.440811,-0.515195
906,-0.000694,-0.440811,-0.515195
907,-0.000693,-0.440811,-0.515195
908,-0.000692,-0.440811,-0.516713
909,-0.000691,-0.440811,-0.516713
910,-0.00069,-0.440811,-0.516713
911,-0.000689,-0.440811,-0.516713
912,-0.000688,-0.440811,-0.515195
913,-0.000687,-0.440811,-0.515195
914,-0.000686,-0.440811,-0.515195
915,-0.000685,-0.440811,-0.515195
916,-0.000684,-0.440811,-0.515195
917,-0.000683,-0.440811,-0.515195
918,-0.000682,-0.440811,-0.515195
919,-0.000681,-0.440811,-0.516713
920,-0.00068,-0.440811,-0.516713
921,-0.000679,-0.440811,-0.515195
922,-0.000678,-0.440811,-0.515195
923,-0.000677,-0.440811,-0.515195
924,-0.000676,-0.440811,-0.515195
925,-0.000675,-0.440811,-0.515195
926,-0.000674,-0.440811,-0.515195
927,-0.000673,-0.440811,-0.515195
928,-0.000672,-0.440811,-0.515195
929,-0.000671,-0.440811,-0.515195
930,-0.00067,-0.440811,-0.515195
931,-0.000669,-0.440811,-0.515195
932,-0.000668,-0.440811,-0.515195
933,-0.000667,-0.440811,-0.515195
934,-0.000666,-0.440811,-0.515195
935,-0.000665,-0.440811,-0.515195
936,-0.000664,-0.440811,-0.515195
937,-0.000663,-0.440811,-0.515195
938,-0.000662,-0.440811,-0.515195
939,-0.000661,-0.440811,-0.515195
940,-0.00066,-0.440811,-0.515195
941,-0.000659,-0.440811,-0.515195
942,-0.000658,-0.440811,-0.516713
943,-0.000657,-0.440811,-0.515195
944,-0.000656,-0.439292,-0.515195
945,-0.000655,-0.442329,-0.515195
946,-0.000654,-0.440811,-0.515195
947,-0.000653,-0.440811,-0.516713
948,-0.000652,-0.440811,-0.515195
949,-0.000651,-0.439292,-0.515195
950,-0.00065,-0.442329,-0.515195
951,-0.000649,-0.442329,-0.515195
952,-0.000648,-0.439292,-0.515195
953,-0.000647,-0.440811,-0.515195
954,-0.000646,-0.440811,-0.515195
955,-0.000645,-0.442329,-0.515195
956,-0.000644,-0.440811,-0.515195
957,-0.000643,-0.442329,-0.515195
958,-0.000642,-0.440811,-0.515195
959,-0.000641,-0.440811,-0.515195
960,-0.00064,-0.442329,-0.515195
961,-0.000639,-0.439292,-0.518231
962,-0.000638,-0.443847,-0.515195
963,-0.000637,-0.440811,-0.515195
964,-0.000636,-0.442329,-0.515195
965,-0.000635,-0.439292,-0.515195
966,-0.000634,-0.442329,-0.515195
967,-0.000633,-0.440811,-0.515195
968,-0.000632,-0.440811,-0.515195
969,-0.000631,-0.440811,-0.515195
970,-0.00063,-0.440811,-0.515195
971,-0.000629,-0.440811,-0.516713
972,-0.000628,-0.442329,-0.516713
973,-0.000627,-0.442329,-0.515195
974,-0.000626,-0.442329,-0.515195
975,-0.000625,-0.442329,-0.515195
976,-0.000624,-0.442329,-0.515195
977,-0.000623,-0.442329,-0.515195
978,-0.000622,-0.440811,-0.515195
979,-0.000621,-0.442329,-0.515195
980,-0.00062,-0.442329,-0.515195
981,-0.000619,-0.440811,-0.515195
982,-0.000618,-0.442329,-0.515195
983,-0.000617,-0.442329,-0.515195
984,-0.000616,-0.442329,-0.515195
985,-0.000615,-0.442329,-0.515195
986,-0.000614,-0.442329,-0.516713
987,-0.000613,-0.442329,-0.516713
988,-0.000612,-0.442329,-0.515195
989,-0.000611,-0.442329,-0.515195
990,-0.00061,-0.442329,-0.515195
991,-0.000609,-0.442329,-0.515195
992,-0.000608,-0.442329,-0.515195
993,-0.000607,-0.442329,-0.515195
994,-0.000606,-0.442329,-0.515195
995,-0.000605,-0.442329,-0.515195
996,-0.000604,-0.442329,-0.515195
997,-0.000603,-0.442329,-0.515195
998,-0.000602,-0.442329,-0.515195
999,-0.000601,-0.442329,-0.515195
1000,-0.0006,-0.442329,-0.515195
1001,-0.000599,-0.442329,-0.515195
1002,-0.000598,-0.442329,-0.516713
1003,-0.000597,-0.442329,-0.515195
1004,-0.000596,-0.442329,-0.515195
1005,-0.000595,-0.442329,-0.515195
1006,-0.000594,-0.442329,-0.515195
1007,-0.000593,-0.442329,-0.516713
1008,-0.000592,-0.442329,-0.515195
1009,-0.000591,-0.442329,-0.515195
1010,-0.00059,-0.442329,-0.515195
1011,-0.000589,-0.442329,-0.515195
1012,-0.000588,-0.442329,-0.516713
1013,-0.000587,-0.442329,-0.515195
1014,-0.000586,-0.442329,-0.515195
1015,-0.000585,-0.442329,-0.515195
1016,-0.000584,-0.442329,-0.515195
1017,-0.000583,-0.442329,-0.515195
1018,-0.000582,-0.442329,-0.515195
1019,-0.000581,-0.442329,-0.516713
1020,-0.00058,-0.442329,-0.515195
1021,-0.000579,-0.442329,-0.515195
1022,-0.000578,-0.442329,-0.515195
1023,-0.000577,-0.442329,-0.515195
1024,-0.000576,-0.442329,-0.515195
1025,-0.000575,-0.442329,-0.515195
1026,-0.000574,-0.442329,-0.515195
1027,-0.000573,-0.443847,-0.515195
1028,-0.000572,-0.440811,-0.515195
1029,-0.000571,-0.440811,-0.516713
1030,-0.00057,-0.445365,-0.516713
1031,-0.000569,-0.442329,-0.515195
1032,-0.000568,-0.443847,-0.515195
1033,-0.000567,-0.440811,-0.515195
1034,-0.000566,-0.442329,-0.515195
1035,-0.000565,-0.442329,-0.515195
1036,-0.000564,-0.442329,-0.515195
1037,-0.000563,-0.443847,-0.515195
1038,-0.000562,-0.443847,-0.515195
1039,-0.000561,-0.442329,-0.515195
1040,-0.00056,-0.442329,-0.515195
1041,-0.000559,-0.443847,-0.515195
1042,-0.000558,-0.442329,-0.515195
1043,-0.000557,-0.442329,-0.515195
1044,-0.000556,-0.442329,-0.515195
1045,-0.000555,-0.443847,-0.515195
1046,-0.000554,-0.443847,-0.515195
1047,-0.000553,-0.442329,-0.515195
1048,-0.000552,-0.443847,-0.515195
1049,-0.000551,-0.442329,-0.515195
1050,-0.00055,-0.443847,-0.515195
1051,-0.000549,-0.443847,-0.515195
1052,-0.000548,-0.443847,-0.516713
1053,-0.000547,-0.443847,-0.513677
1054,-0.000546,-0.443847,-0.515195
1055,-0.000545,-0.442329,-0.515195
1056,-0.000544,-0.443847,-0.515195
1057,-0.000543,-0.443847,-0.515195
1058,-0.000542,-0.443847,-0.515195
1059,-0.000541,-0.443847,-0.515195
1060,-0.00054,-0.443847,-0.515195
1061,-0.000539,-0.443847,-0.515195
1062,-0.000538,-0.443847,-0.515195
1063,-0.000537,-0.443847,-0.515195
1064,-0.000536,-0.443847,-0.518231
1065,-0.000535,-0.443847,-0.515195
1066,-0.000534,-0.443847,-0.515195
1067,-0.000533,-0.443847,-0.515195
1068,-0.000532,-0.443847,-0.515195
1069,-0.000531,-0.443847,-0.515195
1070,-0.00053,-0.443847,-0.515195
1071,-0.000529,-0.443847,-0.515195
1072,-0.000528,-0.443847,-0.515195
1073,-0.000527,-0.443847,-0.515195
1074,-0.000526,-0.443847,-0.515195
1075,-0.000525,-0.443847,-0.515195
1076,-0.000524,-0.443847,-0.515195
1077,-0.000523,-0.443847,-0.515195
1078,-0.000522,-0.443847,-0.515195
1079,-0.000521,-0.443847,-0.515195
1080,-0.00052,-0.443847,-0.515195
1081,-0.000519,-0.443847,-0.515195
1082,-0.000518,-0.443847,-0.515195
1083,-0.000517,-0.443847,-0.515195
1084,-0.000516,-0.443847,-0.518231
1085,-0.000515,-0.443847,-0.515195
1086,-0.000514,-0.443847,-0.515195
1087,-0.000513,-0.443847,-0.515195
1088,-0.000512,-0.443847,-0.515195
1089,-0.000511,-0.443847,-0.515195
1090,-0.00051,-0.443847,-0.515195
1091,-0.000509,-0.443847,-0.515195
1092,-0.000508,-0.443847,-0.515195
1093,-0.000507,-0.443847,-0.515195
1094,-0.000506,-0.443847,-0.515195
1095,-0.000505,-0.443847,-0.515195
1096,-0.000504,-0.443847,-0.515195
1097,-0.000503,-0.443847,-0.516713
1098,-0.000502,-0.443847,-0.515195
1099,-0.000501,-0.443847,-0.515195
1100,-0.0005,-0.443847,-0.515195
1101,-0.000499,-0.443847,-0.515195
1102,-0.000498,-0.443847,-0.515195
1103,-0.000497,-0.443847,-0.515195
1104,-0.000496,-0.443847,-0.515195
1105,-0.000495,-0.443847,-0.518231
1106,-0.000494,-0.443847,-0.515195
1107,-0.000493,-0.443847,-0.515195
1108,-0.000492,-0.443847,-0.515195
1109,-0.000491,-0.443847,-0.515195
1110,-0.00049,-0.443847,-0.515195
1111,-0.000489,-0.442329,-0.516713
1112,-0.000488,-0.445365,-0.515195
1113,-0.000487,-0.443847,-0.515195
1114,-0.000486,-0.443847,-0.515195
1115,-0.000485,-0.443847,-0.515195
1116,-0.000484,-0.443847,-0.515195
1117,-0.000483,-0.442329,-0.515195
1118,-0.000482,-0.446883,-0.515195
1119,-0.000481,-0.442329,-0.515195
1120,-0.00048,-0.443847,-0.518231
1121,-0.000479,-0.443847,-0.515195
1122,-0.000478,-0.443847,-0.515195
1123,-0.000477,-0.443847,-0.515195
1124,-0.000476,-0.443847,-0.515195
1125,-0.000475,-0.443847,-0.515195
1126,-0.000474,-0.443847,-0.515195
1127,-0.000473,-0.443847,-0.515195
1128,-0.000472,-0.443847,-0.515195
1129,-0.000471,-0.443847,-0.515195
1130,-0.00047,-0.443847,-0.515195
1131,-0.000469,-0.443847,-0.516713
1132,-0.000468,-0.443847,-0.516713
1133,-0.000467,-0.443847,-0.516713
1134,-0.000466,-0.443847,-0.515195
1135,-0.000465,-0.442329,-0.515195
1136,-0.000464,-0.445365,-0.515195
1137,-0.000463,-0.443847,-0.515195
1138,-0.000462,-0.443847,-0.515195
1139,-0.000461,-0.442329,-0.515195
1140,-0.00046,-0.446883,-0.515195
1141,-0.000459,-0.443847,-0.515195
1142,-0.000458,-0.443847,-0.516713
1143,-0.000457,-0.445365,-0.515195
1144,-0.000456,-0.445365,-0.515195
1145,-0.000455,-0.445365,-0.515195
1146,-0.000454,-0.445365,-0.515195
1147,-0.000453,-0.445365,-0.515195
1148,-0.000452,-0.445365,-0.515195
1149,-0.000451,-0.443847,-0.515195
1150,-0.00045,-0.445365,-0.515195
1151,-0.000449,-0.445365,-0.515195
1152,-0.000448,-0.445365,-0.516713
1153,-0.000447,-0.445365,-0.515195
1154,-0.000446,-0.445365,-0.515195
1155,-0.000445,-0.445365,-0.515195
1156,-0.000444,-0.445365,-0.515195
1157,-0.000443,-0.445365,-0.515195
1158,-0.000442,-0.445365,-0.515195
1159,-0.000441,-0.445365,-0.515195
1160,-0.00044,-0.443847,-0.515195
1161,-0.000439,-0.445365,-0.516713
1162,-0.000438,-0.445365,-0.516713
1163,-0.000437,-0.445365,-0.515195
1164,-0.000436,-0.445365,-0.515195
1165,-0.000435,-0.445365,-0.515195
1166,-0.000434,-0.445365,-0.515195
1167,-0.000433,-0.445365,-0.515195
1168,-0.000432,-0.445365,-0.515195
1169,-0.000431,-0.445365,-0.515195
1170,-0.00043,-0.445365,-0.515195
1171,-0.000429,-0.445365,-0.515195
1172,-0.000428,-0.443847,-0.515195
1173,-0.000427,-0.445365,-0.515195
1174,-0.000426,-0.445365,-0.515195
1175,-0.000425,-0.445365,-0.515195
1176,-0.000424,-0.445365,-0.515195
1177,-0.000423,-0.445365,-0.515195
1178,-0.000422,-0.445365,-0.515195
1179,-0.000421,-0.445365,-0.515195
1180,-0.00042,-0.445365,-0.515195
1181,-0.000419,-0.445365,-0.515195
1182,-0.000418,-0.445365,-0.515195
1183,-0.000417,-0.445365,-0.515195
1184,-0.000416,-0.445365,-0.515195
1185,-0.000415,-0.445365,-0.515195
1186,-0.000414,-0.445365,-0.515195
1187,-0.000413,-0.445365,-0.515195
1188,-0.000412,-0.445365,-0.515195
1189,-0.000411,-0.445365,-0.515195
1190,-0.00041,-0.445365,-0.515195
1191,-0.000409,-0.445365,-0.515195
1192,-0.000408,-0.445365,-0.515195
1193,-0.000407,-0.445365,-0.515195
1194,-0.000406,-0.445365,-0.515195
1195,-0.000405,-0.445365,-0.515195
1196,-0.000404,-0.445365,-0.515195
1197,-0.000403,-0.445365,-0.515195
1198,-0.000402,-0.445365,-0.516713
1199,-0.000401,-0.445365,-0.516713
1200,-0.0004,-0.445365,-0.515195
1201,-0.000399,-0.445365,-0.515195
1202,-0.000398,-0.445365,-0.515195
1203,-0.000397,-0.445365,-0.516713
1204,-0.000396,-0.445365,-0.516713
1205,-0.000395,-0.445365,-0.515195
1206,-0.000394,-0.445365,-0.515195
1207,-0.000393,-0.445365,-0.515195
1208,-0.000392,-0.445365,-0.515195
1209,-0.000391,-0.445365,-0.515195
1210,-0.00039,-0.445365,-0.515195
1211,-0.000389,-0.445365,-0.515195
1212,-0.000388,-0.445365,-0.515195
1213,-0.000387,-0.445365,-0.515195
1214,-0.000386,-0.445365,-0.518231
1215,-0.000385,-0.445365,-0.515195
1216,-0.000384,-0.445365,-0.515195
1217,-0.000383,-0.445365,-0.515195
1218,-0.000382,-0.445365,-0.516713
1219,-0.000381,-0.445365,-0.515195
1220,-0.00038,-0.445365,-0.515195
1221,-0.000379,-0.445365,-0.515195
1222,-0.000378,-0.445365,-0.515195
1223,-0.000377,-0.445365,-0.515195
1224,-0.000376,-0.445365,-0.515195
1225,-0.000375,-0.445365,-0.515195
1226,-0.000374,-0.445365,-0.515195
1227,-0.000373,-0.445365,-0.516713
1228,-0.000372,-0.445365,-0.516713
1229,-0.000371,-0.445365,-0.515195
1230,-0.00037,-0.445365,-0.515195
1231,-0.000369,-0.445365,-0.515195
1232,-0.000368,-0.445365,-0.515195
1233,-0.000367,-0.445365,-0.516713
1234,-0.000366,-0.445365,-0.516713
1235,-0.000365,-0.445365,-0.516713
1236,-0.000364,-0.443847,-0.515195
1237,-0.000363,-0.446883,-0.515195
1238,-0.000362,-0.445365,-0.515195
1239,-0.000361,-0.445365,-0.516713
1240,-0.00036,-0.445365,-0.515195
1241,-0.000359,-0.445365,-0.515195
1242,-0.000358,-0.445365,-0.515195
1243,-0.000357,-0.445365,-0.515195
1244,-0.000356,-0.445365,-0.515195
1245,-0.000355,-0.443847,-0.515195
1246,-0.000354,-0.446883,-0.515195
1247,-0.000353,-0.445365,-0.515195
1248,-0.000352,-0.445365,-0.515195
1249,-0.000351,-0.445365,-0.515195
1250,-0.00035,-0.445365,-0.515195
1251,-0.000349,-0.445365,-0.515195
1252,-0.000348,-0.446883,-0.518231
1253,-0.000347,-0.443847,-0.515195
1254,-0.000346,-0.445365,-0.515195
1255,-0.000345,-0.445365,-0.515195
1256,-0.000344,-0.445365,-0.515195
1257,-0.000343,-0.445365,-0.515195
1258,-0.000342,-0.445365,-0.515195
1259,-0.000341,-0.445365,-0.515195
1260,-0.00034,-0.445365,-0.515195
1261,-0.000339,-0.445365,-0.515195
1262,-0.000338,-0.445365,-0.515195
1263,-0.000337,-0.445365,-0.515195
1264,-0.000336,-0.445365,-0.515195
1265,-0.000335,-0.445365,-0.515195
1266,-0.000334,-0.445365,-0.515195
1267,-0.000333,-0.445365,-0.515195
1268,-0.000332,-0.448401,-0.515195
1269,-0.000331,-0.445365,-0.515195
1270,-0.00033,-0.445365,-0.515195
1271,-0.000329,-0.445365,-0.515195
1272,-0.000328,-0.446883,-0.515195
1273,-0.000327,-0.446883,-0.516713
1274,-0.000326,-0.445365,-0.516713
1275,-0.000325,-0.445365,-0.515195
1276,-0.000324,-0.446883,-0.515195
1277,-0.000323,-0.445365,-0.516713
1278,-0.000322,-0.445365,-0.515195
1279,-0.000321,-0.445365,-0.515195
1280,-0.00032,-0.445365,-0.515195
1281,-0.000319,-0.445365,-0.515195
1282,-0.000318,-0.445365,-0.515195
1283,-0.000317,-0.445365,-0.515195
1284,-0.000316,-0.446883,-0.515195
1285,-0.000315,-0.446883,-0.515195
1286,-0.000314,-0.443847,-0.515195
1287,-0.000313,-0.446883,-0.515195
1288,-0.000312,-0.446883,-0.515195
1289,-0.000311,-0.446883,-0.515195
1290,-0.00031,-0.446883,-0.516713
1291,-0.000309,-0.446883,-0.515195
1292,-0.000308,-0.446883,-0.515195
1293,-0.000307,-0.446883,-0.515195
1294,-0.000306,-0.446883,-0.515195
1295,-0.000305,-0.446883,-0.515195
1296,-0.000304,-0.446883,-0.518231
1297,-0.000303,-0.446883,-0.515195
1298,-0.000302,-0.446883,-0.515195
1299,-0.000301,-0.446883,-0.518231
1300,-0.0003,-0.446883,-0.515195
1301,-0.000299,-0.446883,-0.515195
1302,-0.000298,-0.446883,-0.515195
1303,-0.000297,-0.446883,-0.515195
1304,-0.000296,-0.446883,-0.515195
1305,-0.000295,-0.446883,-0.515195
1306,-0.000294,-0.446883,-0.515195
1307,-0.000293,-0.446883,-0.515195
1308,-0.000292,-0.446883,-0.515195
1309,-0.000291,-0.446883,-0.515195
1310,-0.00029,-0.446883,-0.515195
1311,-0.000289,-0.446883,-0.515195
1312,-0.000288,-0.446883,-0.515195
1313,-0.000287,-0.446883,-0.515195
1314,-0.000286,-0.446883,-0.515195
1315,-0.000285,-0.446883,-0.515195
1316,-0.000284,-0.446883,-0.515195
1317,-0.000283,-0.446883,-0.515195
1318,-0.000282,-0.446883,-0.515195
1319,-0.000281,-0.446883,-0.515195
1320,-0.00028,-0.446883,-0.515195
1321,-0.000279,-0.446883,-0.515195
1322,-0.000278,-0.446883,-0.515195
1323,-0.000277,-0.446883,-0.515195
1324,-0.000276,-0.446883,-0.515195
1325,-0.000275,-0.446883,-0.515195
1326,-0.000274,-0.446883,-0.516713
1327,-0.000273,-0.446883,-0.515195
1328,-0.000272,-0.446883,-0.515195
1329,-0.000271,-0.446883,-0.515195
1330,-0.00027,-0.446883,-0.515195
1331,-0.000269,-0.446883,-0.515195
1332,-0.000268,-0.446883,-0.515195
1333,-0.000267,-0.446883,-0.515195
1334,-0.000266,-0.446883,-0.515195
1335,-0.000265,-0.446883,-0.515195
1336,-0.000264,-0.446883,-0.515195
1337,-0.000263,-0.446883,-0.515195
1338,-0.000262,-0.446883,-0.515195
1339,-0.000261,-0.446883,-0.515195
1340,-0.00026,-0.446883,-0.515195
1341,-0.000259,-0.446883,-0.515195
1342,-0.000258,-0.446883,-0.516713
1343,-0.000257,-0.446883,-0.513677
1344,-0.000256,-0.446883,-0.516713
1345,-0.000255,-0.446883,-0.515195
1346,-0.000254,-0.446883,-0.515195
1347,-0.000253,-0.446883,-0.516713
1348,-0.000252,-0.446883,-0.515195
1349,-0.000251,-0.446883,-0.515195
1350,-0.00025,-0.446883,-0.515195
1351,-0.000249,-0.446883,-0.515195
1352,-0.000248,-0.446883,-0.515195
1353,-0.000247,-0.446883,-0.515195
1354,-0.000246,-0.446883,-0.516713
1355,-0.000245,-0.446883,-0.516713
1356,-0.000244,-0.446883,-0.515195
1357,-0.000243,-0.446883,-0.516713
1358,-0.000242,-0.446883,-0.515195
1359,-0.000241,-0.446883,-0.515195
1360,-0.00024,-0.446883,-0.515195
1361,-0.000239,-0.446883,-0.515195
1362,-0.000238,-0.446883,-0.515195
1363,-0.000237,-0.446883,-0.515195
1364,-0.000236,-0.446883,-0.515195
1365,-0.000235,-0.446883,-0.515195
1366,-0.000234,-0.446883,-0.515195
1367,-0.000233,-0.446883,-0.515195
1368,-0.000232,-0.446883,-0.515195
1369,-0.000231,-0.446883,-0.515195
1370,-0.00023,-0.446883,-0.515195
1371,-0.000229,-0.446883,-0.515195
1372,-0.000228,-0.446883,-0.515195
1373,-0.000227,-0.446883,-0.515195
1374,-0.000226,-0.446883,-0.515195
1375,-0.000225,-0.446883,-0.515195
1376,-0.000224,-0.446883,-0.515195
1377,-0.000223,-0.445365,-0.515195
1378,-0.000222,-0.448401,-0.515195
1379,-0.000221,-0.448401,-0.515195
1380,-0.00022,-0.445365,-0.515195
1381,-0.000219,-0.446883,-0.515195
1382,-0.000218,-0.446883,-0.515195
1383,-0.000217,-0.446883,-0.515195
1384,-0.000216,-0.446883,-0.515195
1385,-0.000215,-0.445365,-0.516713
1386,-0.000214,-0.448401,-0.515195
1387,-0.000213,-0.445365,-0.515195
1388,-0.000212,-0.448401,-0.515195
1389,-0.000211,-0.446883,-0.515195
1390,-0.00021,-0.451437,-0.516713
1391,-0.000209,-0.445365,-0.516713
1392,-0.000208,-0.446883,-0.515195
1393,-0.000207,-0.445365,-0.515195
1394,-0.000206,-0.451437,-0.515195
1395,-0.000205,-0.446883,-0.515195
1396,-0.000204,-0.446883,-0.515195
1397,-0.000203,-0.448401,-0.515195
1398,-0.000202,-0.448401,-0.515195
1399,-0.000201,-0.446883,-0.516713
1400,-0.0002,-0.446883,-0.516713
1401,-0.000199,-0.446883,-0.515195
1402,-0.000198,-0.446883,-0.515195
1403,-0.000197,-0.451437,-0.515195
1404,-0.000196,-0.446883,-0.515195
1405,-0.000195,-0.448401,-0.515195
1406,-0.000194,-0.448401,-0.515195
1407,-0.000193,-0.445365,-0.515195
1408,-0.000192,-0.446883,-0.515195
1409,-0.000191,-0.446883,-0.515195
1410,-0.00019,-0.445365,-0.515195
1411,-0.000189,-0.446883,-0.515195
1412,-0.000188,-0.448401,-0.515195
1413,-0.000187,-0.448401,-0.515195
1414,-0.000186,-0.448401,-0.516713
1415,-0.000185,-0.445365,-0.515195
1416,-0.000184,-0.448401,-0.515195
1417,-0.000183,-0.446883,-0.515195
1418,-0.000182,-0.448401,-0.515195
1419,-0.000181,-0.448401,-0.515195
1420,-0.00018,-0.448401,-0.515195
1421,-0.000179,-0.446883,-0.515195
1422,-0.000178,-0.446883,-0.515195
1423,-0.000177,-0.448401,-0.515195
1424,-0.000176,-0.448401,-0.515195
1425,-0.000175,-0.448401,-0.515195
1426,-0.000174,-0.448401,-0.515195
1427,-0.000173,-0.446883,-0.515195
1428,-0.000172,-0.448401,-0.516713
1429,-0.000171,-0.448401,-0.515195
1430,-0.00017,-0.448401,-0.515195
1431,-0.000169,-0.448401,-0.516713
1432,-0.000168,-0.446883,-0.513677
1433,-0.000167,-0.446883,-0.516713
1434,-0.000166,-0.451437,-0.515195
1435,-0.000165,-0.445365,-0.515195
1436,-0.000164,-0.448401,-0.515195
1437,-0.000163,-0.448401,-0.515195
1438,-0.000162,-0.448401,-0.515195
1439,-0.000161,-0.448401,-0.515195
1440,-0.00016,-0.448401,-0.515195
1441,-0.000159,-0.448401,-0.515195
1442,-0.000158,-0.448401,-0.515195
1443,-0.000157,-0.446883,-0.515195
1444,-0.000156,-0.448401,-0.515195
1445,-0.000155,-0.448401,-0.515195
1446,-0.000154,-0.448401,-0.516713
1447,-0.000153,-0.448401,-0.516713
1448,-0.000152,-0.448401,-0.516713
1449,-0.000151,-0.448401,-0.516713
1450,-0.00015,-0.446883,-0.515195
1451,-0.000149,-0.448401,-0.515195
1452,-0.000148,-0.446883,-0.515195
1453,-0.000147,-0.448401,-0.516713
1454,-0.000146,-0.448401,-0.515195
1455,-0.000145,-0.448401,-0.515195
1456,-0.000144,-0.448401,-0.518231
1457,-0.000143,-0.448401,-0.513677
1458,-0.000142,-0.448401,-0.515195
1459,-0.000141,-0.448401,-0.516713
1460,-0.00014,-0.448401,-0.518231
1461,-0.000139,-0.448401,-0.516713
1462,-0.000138,-0.448401,-0.516713
1463,-0.000137,-0.448401,-0.516713
1464,-0.000136,-0.448401,-0.516713
1465,-0.000135,-0.448401,-0.515195
1466,-0.000134,-0.448401,-0.515195
1467,-0.000133,-0.448401,-0.516713
1468,-0.000132,-0.448401,-0.513677
1469,-0.000131,-0.448401,-0.516713
1470,-0.00013,-0.448401,-0.516713
1471,-0.000129,-0.448401,-0.515195
1472,-0.000128,-0.448401,-0.516713
1473,-0.000127,-0.448401,-0.515195
1474,-0.000126,-0.448401,-0.515195
1475,-0.000125,-0.448401,-0.515195
1476,-0.000124,-0.448401,-0.515195
1477,-0.000123,-0.448401,-0.515195
1478,-0.000122,-0.448401,-0.516713
1479,-0.000121,-0.448401,-0.516713
1480,-0.00012,-0.448401,-0.515195
1481,-0.000119,-0.448401,-0.515195
1482,-0.000118,-0.448401,-0.515195
1483,-0.000117,-0.448401,-0.516713
1484,-0.000116,-0.448401,-0.515195
1485,-0.000115,-0.448401,-0.515195
1486,-0.000114,-0.448401,-0.515195
1487,-0.000113,-0.448401,-0.515195
1488,-0.000112,-0.448401,-0.515195
1489,-0.000111,-0.448401,-0.516713
1490,-0.00011,-0.448401,-0.515195
1491,-0.000109,-0.448401,-0.515195
1492,-0.000108,-0.448401,-0.515195
1493,-0.000107,-0.448401,-0.518231
1494,-0.000106,-0.448401,-0.515195
1495,-0.000105,-0.448401,-0.515195
1496,-0.000104,-0.448401,-0.515195
1497,-0.000103,-0.448401,-0.515195
1498,-0.000102,-0.448401,-0.515195
1499,-0.000101,-0.448401,-0.515195
1500,-0.0001,-0.448401,-0.515195
1501,-9.9e-05,-0.448401,-0.515195
1502,-9.8e-05,-0.448401,-0.515195
1503,-9.7e-05,-0.448401,-0.515195
1504,-9.6e-05,-0.448401,-0.515195
1505,-9.5e-05,-0.448401,-0.515195
1506,-9.4e-05,-0.448401,-0.515195
1507,-9.3e-05,-0.448401,-0.515195
1508,-9.2e-05,-0.448401,-0.515195
1509,-9.1e-05,-0.448401,-0.515195
1510,-9e-05,-0.448401,-0.515195
1511,-8.9e-05,-0.448401,-0.515195
1512,-8.8e-05,-0.448401,-0.515195
1513,-8.7e-05,-0.448401,-0.515195
1514,-8.6e-05,-0.448401,-0.518231
1515,-8.5e-05,-0.448401,-0.515195
1516,-8.4e-05,-0.448401,-0.515195
1517,-8.3e-05,-0.448401,-0.515195
1518,-8.2e-05,-0.448401,-0.516713
1519,-8.1e-05,-0.448401,-0.516713
1520,-8e-05,-0.448401,-0.515195
1521,-7.9e-05,-0.448401,-0.515195
1522,-7.8e-05,-0.448401,-0.515195
1523,-7.7e-05,-0.448401,-0.515195
1524,-7.6e-05,-0.448401,-0.515195
1525,-7.5e-05,-0.448401,-0.516713
1526,-7.4e-05,-0.448401,-0.515195
1527,-7.3e-05,-0.448401,-0.515195
1528,-7.2e-05,-0.448401,-0.516713
1529,-7.1e-05,-0.451437,-0.513677
1530,-7e-05,-0.446883,-0.518231
1531,-6.9e-05,-0.448401,-0.515195
1532,-6.8e-05,-0.448401,-0.515195
1533,-6.7e-05,-0.446883,-0.515195
1534,-6.6e-05,-0.451437,-0.518231
1535,-6.5e-05,-0.448401,-0.515195
1536,-6.4e-05,-0.446883,-0.515195
1537,-6.3e-05,-0.451437,-0.515195
1538,-6.2e-05,-0.448401,-0.515195
1539,-6.1e-05,-0.448401,-0.516713
1540,-6e-05,-0.448401,-0.516713
1541,-5.9e-05,-0.448401,-0.516713
1542,-5.8e-05,-0.448401,-0.516713
1543,-5.7e-05,-0.446883,-0.515195
1544,-5.6e-05,-0.452955,-0.515195
1545,-5.5e-05,-0.448401,-0.516713
1546,-5.4e-05,-0.451437,-0.516713
1547,-5.3e-05,-0.448401,-0.516713
1548,-5.2e-05,-0.448401,-0.515195
1549,-5.1e-05,-0.446883,-0.516713
1550,-5e-05,-0.446883,-0.515195
1551,-4.9e-05,-0.451437,-0.515195
1552,-4.8e-05,-0.451437,-0.515195
1553,-4.7e-05,-0.448401,-0.515195
1554,-4.6e-05,-0.451437,-0.516713
1555,-4.5e-05,-0.451437,-0.516713
1556,-4.4e-05,-0.446883,-0.516713
1557,-4.3e-05,-0.448401,-0.516713
1558,-4.2e-05,-0.451437,-0.515195
1559,-4.1e-05,-0.446883,-0.516713
1560,-4e-05,-0.448401,-0.516713
1561,-3.9e-05,-0.446883,-0.515195
1562,-3.8e-05,-0.451437,-0.515195
1563,-3.7e-05,-0.451437,-0.515195
1564,-3.6e-05,-0.446883,-0.515195
1565,-3.5e-05,-0.446883,-0.515195
1566,-3.4e-05,-0.452955,-0.515195
1567,-3.3e-05,-0.446883,-0.515195
1568,-3.2e-05,-0.446883,-0.515195
1569,-3.1e-05,-0.451437,-0.515195
1570,-3e-05,-0.451437,-0.515195
1571,-2.9e-05,-0.448401,-0.516713
1572,-2.8e-05,-0.451437,-0.516713
1573,-2.7e-05,-0.451437,-0.515195
1574,-2.6e-05,-0.448401,-0.515195
1575,-2.5e-05,-0.451437,-0.515195
1576,-2.4e-05,-0.451437,-0.516713
1577,-2.3e-05,-0.451437,-0.515195
1578,-2.2e-05,-0.448401,-0.516713
1579,-2.1e-05,-0.448401,-0.515195
1580,-2e-05,-0.451437,-0.516713
1581,-1.9e-05,-0.451437,-0.516713
1582,-1.8e-05,-0.448401,-0.515195
1583,-1.7e-05,-0.448401,-0.515195
1584,-1.6e-05,-0.451437,-0.515195
1585,-1.5e-05,-0.451437,-0.515195
1586,-1.4e-05,-0.451437,-0.515195
1587,-1.3e-05,-0.451437,-0.515195
1588,-1.2e-05,-0.451437,-0.515195
1589,-1.1e-05,-0.451437,-0.515195
1590,-1e-05,-0.451437,-0.515195
1591,-9e-06,-0.451437,-0.516713
1592,-8e-06,-0.451437,-0.515195
1593,-7e-06,-0.451437,-0.515195
1594,-6e-06,-0.451437,-0.515195
1595,-5e-06,-0.448401,-0.515195
1596,-4e-06,-0.451437,-0.515195
1597,-3e-06,-0.448401,-0.515195
1598,-2e-06,-0.451437,-0.516713
1599,-1e-06,-0.451437,-0.515195
1600,0,-0.451437,-0.515195
1601,1e-06,-0.451437,-0.500014
1602,2e-06,-0.448401,-0.560736
1603,3e-06,-0.445365,0.489751
1604,4e-06,-0.442329,0.471534
1605,5e-06,-0.439292,0.489751
1606,6e-06,-0.436256,0.489751
1607,7e-06,-0.43322,0.489751
1608,8e-06,-0.430184,0.489751
1609,9e-06,-0.427148,0.489751
1610,1e-05,-0.422594,0.489751
1611,1.1e-05,-0.419558,0.489751
1612,1.2e-05,-0.416522,0.489751
1613,1.3e-05,-0.415004,0.489751
1614,1.4e-05,-0.411968,0.489751
1615,1.5e-05,-0.41045,0.489751
1616,1.6e-05,-0.402859,0.492787
1617,1.7e-05,-0.404377,0.489751
1618,1.8e-05,-0.398305,0.489751
1619,1.9e-05,-0.395269,0.489751
1620,2e-05,-0.392233,0.489751
1621,2.1e-05,-0.389197,0.489751
1622,2.2e-05,-0.389197,0.489751
1623,2.3e-05,-0.384643,0.489751
1624,2.4e-05,-0.381607,0.491269
1625,2.5e-05,-0.377053,0.491269
1626,2.6e-05,-0.374017,0.491269
1627,2.7e-05,-0.37098,0.491269
1628,2.8e-05,-0.367944,0.491269
1629,2.9e-05,-0.366426,0.491269
1630,3e-05,-0.36339,0.491269
1631,3.1e-05,-0.360354,0.492787
1632,3.2e-05,-0.357318,0.492787
1633,3.3e-05,-0.3558,0.491269
1634,3.4e-05,-0.351246,0.491269
1635,3.5e-05,-0.34821,0.491269
1636,3.6e-05,-0.345174,0.491269
1637,3.7e-05,-0.343656,0.491269
1638,3.8e-05,-0.34062,0.491269
1639,3.9e-05,-0.337584,0.491269
1640,4e-05,-0.336065,0.491269
1641,4.1e-05,-0.333029,0.492787
1642,4.2e-05,-0.328475,0.492787
1643,4.3e-05,-0.326957,0.491269
1644,4.4e-05,-0.323921,0.491269
1645,4.5e-05,-0.322403,0.491269
1646,4.6e-05,-0.319367,0.494305
1647,4.7e-05,-0.316331,0.491269
1648,4.8e-05,-0.314813,0.491269
1649,4.9e-05,-0.311777,0.491269
1650,5e-05,-0.310259,0.492787
1651,5.1e-05,-0.307223,0.492787
1652,5.2e-05,-0.302668,0.491269
1653,5.3e-05,-0.30115,0.491269
1654,5.4e-05,-0.298114,0.491269
1655,5.5e-05,-0.296596,0.491269
1656,5.6e-05,-0.29356,0.492787
1657,5.7e-05,-0.292042,0.492787
1658,5.8e-05,-0.289006,0.491269
1659,5.9e-05,-0.28597,0.491269
1660,6e-05,-0.284452,0.491269
1661,6.1e-05,-0.279898,0.491269
1662,6.2e-05,-0.27838,0.491269
1663,6.3e-05,-0.273826,0.492787
1664,6.4e-05,-0.273826,0.492787
1665,6.5e-05,-0.27079,0.492787
1666,6.6e-05,-0.269272,0.489751
1667,6.7e-05,-0.266235,0.492787
1668,6.8e-05,-0.264717,0.492787
1669,6.9e-05,-0.261681,0.492787
1670,7e-05,-0.257127,0.492787
1671,7.1e-05,-0.257127,0.492787
1672,7.2e-05,-0.254091,0.492787
1673,7.3e-05,-0.251055,0.492787
1674,7.4e-05,-0.248019,0.492787
1675,7.5e-05,-0.248019,0.492787
1676,7.6e-05,-0.244983,0.492787
1677,7.7e-05,-0.243465,0.491269
1678,7.8e-05,-0.238911,0.492787
1679,7.9e-05,-0.238911,0.492787
1680,8e-05,-0.237393,0.492787
1681,8.1e-05,-0.23132,0.492787
1682,8.2e-05,-0.23132,0.492787
1683,8.3e-05,-0.229802,0.492787
1684,8.4e-05,-0.225248,0.492787
1685,8.5e-05,-0.225248,0.492787
1686,8.6e-05,-0.220694,0.492787
1687,8.7e-05,-0.220694,0.492787
1688,8.8e-05,-0.219176,0.492787
1689,8.9e-05,-0.214622,0.492787
1690,9e-05,-0.214622,0.492787
1691,9.1e-05,-0.211586,0.492787
1692,9.2e-05,-0.207032,0.492787
1693,9.3e-05,-0.207032,0.492787
1694,9.4e-05,-0.203996,0.492787
1695,9.5e-05,-0.202478,0.491269
1696,9.6e-05,-0.199441,0.489751
1697,9.7e-05,-0.199441,0.492787
1698,9.8e-05,-0.194887,0.492787
1699,9.9e-05,-0.194887,0.492787
1700,0.0001,-0.193369,0.492787
1701,0.000101,-0.190333,0.492787
1702,0.000102,-0.188815,0.491269
1703,0.000103,-0.184261,0.492787
1704,0.000104,-0.184261,0.492787
1705,0.000105,-0.181225,0.492787
1706,0.000106,-0.179707,0.492787
1707,0.000107,-0.178189,0.492787
1708,0.000108,-0.175153,0.492787
1709,0.000109,-0.172117,0.492787
1710,0.00011,-0.172117,0.492787
1711,0.000111,-0.170599,0.492787
1712,0.000112,-0.167563,0.492787
1713,0.000113,-0.166045,0.492787
1714,0.000114,-0.16149,0.492787
1715,0.000115,-0.159972,0.492787
1716,0.000116,-0.159972,0.492787
1717,0.000117,-0.156936,0.492787
1718,0.000118,-0.155418,0.491269
1719,0.000119,-0.152382,0.491269
1720,0.00012,-0.150864,0.492787
1721,0.000121,-0.150864,0.492787
1722,0.000122,-0.147828,0.492787
1723,0.000123,-0.144792,0.492787
1724,0.000124,-0.144792,0.492787
1725,0.000125,-0.141756,0.492787
1726,0.000126,-0.140238,0.492787
1727,0.000127,-0.137202,0.492787
1728,0.000128,-0.135684,0.492787
1729,0.000129,-0.134166,0.491269
1730,0.00013,-0.131129,0.492787
1731,0.000131,-0.129611,0.492787
1732,0.000132,-0.128093,0.492787
1733,0.000133,-0.128093,0.492787
1734,0.000134,-0.125057,0.492787
1735,0.000135,-0.123539,0.492787
1736,0.000136,-0.120503,0.492787
1737,0.000137,-0.118985,0.492787
1738,0.000138,-0.117467,0.492787
1739,0.000139,-0.115949,0.492787
1740,0.00014,-0.112913,0.492787
1741,0.000141,-0.112913,0.495823
1742,0.000142,-0.109877,0.492787
1743,0.000143,-0.108359,0.492787
1744,0.000144,-0.106841,0.492787
1745,0.000145,-0.103805,0.494305
1746,0.000146,-0.103805,0.492787
1747,0.000147,-0.102287,0.492787
1748,0.000148,-0.0992506,0.492787
1749,0.000149,-0.0992506,0.494305
1750,0.00015,-0.0962145,0.494305
1751,0.000151,-0.0931784,0.494305
1752,0.000152,-0.0931784,0.492787
1753,0.000153,-0.0901423,0.492787
1754,0.000154,-0.0886242,0.492787
1755,0.000155,-0.0886242,0.494305
1756,0.000156,-0.0855881,0.494305
1757,0.000157,-0.0825521,0.494305
1758,0.000158,-0.081034,0.494305
1759,0.000159,-0.081034,0.494305
1760,0.00016,-0.079516,0.492787
1761,0.000161,-0.0779979,0.492787
1762,0.000162,-0.0764799,0.492787
1763,0.000163,-0.0749618,0.494305
1764,0.000164,-0.0719258,0.494305
1765,0.000165,-0.0719258,0.494305
1766,0.000166,-0.0704077,0.492787
1767,0.000167,-0.0658536,0.492787
1768,0.000168,-0.0688897,0.492787
1769,0.000169,-0.0643355,0.492787
1770,0.00017,-0.0612994,0.494305
1771,0.000171,-0.0612994,0.494305
1772,0.000172,-0.0582634,0.492787
1773,0.000173,-0.0597814,0.492787
1774,0.000174,-0.0567453,0.492787
1775,0.000175,-0.0552273,0.492787
1776,0.000176,-0.0537092,0.492787
1777,0.000177,-0.0521912,0.494305
1778,0.000178,-0.0491551,0.494305
1779,0.000179,-0.0491551,0.492787
1780,0.00018,-0.047637,0.492787
1781,0.000181,-0.046119,0.492787
1782,0.000182,-0.044601,0.492787
1783,0.000183,-0.044601,0.492787
1784,0.000184,-0.0415649,0.492787
1785,0.000185,-0.0385288,0.492787
1786,0.000186,-0.0385288,0.492787
1787,0.000187,-0.0370107,0.492787
1788,0.000188,-0.0354927,0.492787
1789,0.000189,-0.0339746,0.492787
1790,0.00019,-0.0324566,0.492787
1791,0.000191,-0.0309386,0.492787
1792,0.000192,-0.0294205,0.492787
1793,0.000193,-0.0279025,0.492787
1794,0.000194,-0.0279025,0.492787
1795,0.000195,-0.0263844,0.492787
1796,0.000196,-0.0248664,0.491269
1797,0.000197,-0.0233483,0.492787
1798,0.000198,-0.0203122,0.492787
1799,0.000199,-0.0203122,0.492787
1800,0.0002,-0.0172762,0.491269
1801,0.000201,-0.0172762,0.491269
1802,0.000202,-0.0142401,0.494305
1803,0.000203,-0.0142401,0.489751
1804,0.000204,-0.011204,0.494305
1805,0.000205,-0.011204,0.491269
1806,0.000206,-0.00968594,0.492787
1807,0.000207,-0.00816789,0.492787
1808,0.000208,-0.00664985,0.492787
1809,0.000209,-0.0051318,0.491269
1810,0.00021,-0.0051318,0.492787
1811,0.000211,-0.00209572,0.492787
1812,0.000212,-0.00209572,0.492787
1813,0.000213,-0.000577672,0.492787
1814,0.000214,0.000940373,0.492787
1815,0.000215,0.00549451,0.492787
1816,0.000216,0.00549451,0.492787
1817,0.000217,0.00701255,0.492787
1818,0.000218,0.00701255,0.492787
1819,0.000219,0.0100486,0.494305
1820,0.00022,0.0100486,0.492787
1821,0.000221,0.0115667,0.492787
1822,0.000222,0.0115667,0.492787
1823,0.000223,0.0146028,0.492787
1824,0.000224,0.0161208,0.492787
1825,0.000225,0.0176389,0.492787
1826,0.000226,0.0176389,0.492787
1827,0.000227,0.0191569,0.492787
1828,0.000228,0.0191569,0.492787
1829,0.000229,0.022193,0.492787
1830,0.00023,0.023711,0.492787
1831,0.000231,0.023711,0.492787
1832,0.000232,0.023711,0.492787
1833,0.000233,0.0267471,0.492787
1834,0.000234,0.0267471,0.492787
1835,0.000235,0.0313013,0.492787
1836,0.000236,0.0313013,0.492787
1837,0.000237,0.0313013,0.492787
1838,0.000238,0.0343373,0.492787
1839,0.000239,0.0358554,0.492787
1840,0.00024,0.0358554,0.492787
1841,0.000241,0.0373734,0.492787
1842,0.000242,0.0373734,0.492787
1843,0.000243,0.0404095,0.492787
1844,0.000244,0.0404095,0.494305
1845,0.000245,0.0419276,0.492787
1846,0.000246,0.0419276,0.492787
1847,0.000247,0.0449637,0.492787
1848,0.000248,0.0449637,0.492787
1849,0.000249,0.0449637,0.492787
1850,0.00025,0.0479997,0.494305
1851,0.000251,0.0495178,0.492787
1852,0.000252,0.0495178,0.492787
1853,0.000253,0.0510358,0.494305
1854,0.000254,0.0510358,0.492787
1855,0.000255,0.05559,0.492787
1856,0.000256,0.05559,0.492787
1857,0.000257,0.057108,0.492787
1858,0.000258,0.057108,0.492787
1859,0.000259,0.0586261,0.492787
1860,0.00026,0.0601441,0.492787
1861,0.000261,0.0601441,0.492787
1862,0.000262,0.0616621,0.492787
1863,0.000263,0.0631802,0.492787
1864,0.000264,0.0631802,0.492787
1865,0.000265,0.0662163,0.492787
1866,0.000266,0.0646982,0.492787
1867,0.000267,0.0677343,0.492787
1868,0.000268,0.0677343,0.492787
1869,0.000269,0.0692524,0.492787
1870,0.00027,0.0692524,0.492787
1871,0.000271,0.0722885,0.492787
1872,0.000272,0.0722885,0.492787
1873,0.000273,0.0722885,0.492787
1874,0.000274,0.0753245,0.492787
1875,0.000275,0.0738065,0.492787
1876,0.000276,0.0783606,0.492787
1877,0.000277,0.0798787,0.492787
1878,0.000278,0.0783606,0.492787
1879,0.000279,0.0813967,0.491269
1880,0.00028,0.0813967,0.492787
1881,0.000281,0.0813967,0.492787
1882,0.000282,0.0844328,0.492787
1883,0.000283,0.0844328,0.492787
1884,0.000284,0.0859509,0.492787
1885,0.000285,0.0859509,0.492787
1886,0.000286,0.0889869,0.492787
1887,0.000287,0.0889869,0.492787
1888,0.000288,0.090505,0.492787
1889,0.000289,0.090505,0.492787
1890,0.00029,0.092023,0.492787
1891,0.000291,0.0935411,0.492787
1892,0.000292,0.0935411,0.492787
1893,0.000293,0.0950591,0.492787
1894,0.000294,0.0965772,0.492787
1895,0.000295,0.0965772,0.492787
1896,0.000296,0.0965772,0.492787
1897,0.000297,0.0996132,0.492787
1898,0.000298,0.0996132,0.492787
1899,0.000299,0.102649,0.492787
1900,0.0003,0.104167,0.492787
1901,0.000301,0.102649,0.492787
1902,0.000302,0.105685,0.492787
1903,0.000303,0.105685,0.492787
1904,0.000304,0.105685,0.492787
1905,0.000305,0.108722,0.492787
1906,0.000306,0.107203,0.492787
1907,0.000307,0.11024,0.492787
1908,0.000308,0.111758,0.492787
1909,0.000309,0.11024,0.492787
1910,0.00031,0.113276,0.494305
1911,0.000311,0.113276,0.492787
1912,0.000312,0.113276,0.492787
1913,0.000313,0.116312,0.494305
1914,0.000314,0.114794,0.492787
1915,0.000315,0.11783,0.492787
1916,0.000316,0.11783,0.494305
1917,0.000317,0.11783,0.494305
1918,0.000318,0.120866,0.494305
1919,0.000319,0.119348,0.491269
1920,0.00032,0.122384,0.494305
1921,0.000321,0.120866,0.494305
1922,0.000322,0.12542,0.492787
1923,0.000323,0.12542,0.492787
1924,0.000324,0.126938,0.492787
1925,0.000325,0.126938,0.492787
1926,0.000326,0.126938,0.492787
1927,0.000327,0.129974,0.492787
1928,0.000328,0.129974,0.492787
1929,0.000329,0.131492,0.492787
1930,0.00033,0.131492,0.492787
1931,0.000331,0.13301,0.492787
1932,0.000332,0.13301,0.492787
1933,0.000333,0.134528,0.494305
1934,0.000334,0.134528,0.492787
1935,0.000335,0.136046,0.492787
1936,0.000336,0.136046,0.492787
1937,0.000337,0.136046,0.495823
1938,0.000338,0.139082,0.492787
1939,0.000339,0.139082,0.492787
1940,0.00034,0.139082,0.492787
1941,0.000341,0.142118,0.492787
1942,0.000342,0.142118,0.492787
1943,0.000343,0.142118,0.492787
1944,0.000344,0.142118,0.492787
1945,0.000345,0.145155,0.492787
1946,0.000346,0.145155,0.492787
1947,0.000347,0.145155,0.492787
1948,0.000348,0.146673,0.492787
1949,0.000349,0.146673,0.492787
1950,0.00035,0.149709,0.492787
1951,0.000351,0.149709,0.492787
1952,0.000352,0.149709,0.492787
1953,0.000353,0.152745,0.492787
1954,0.000354,0.152745,0.492787
1955,0.000355,0.154263,0.492787
1956,0.000356,0.154263,0.492787
1957,0.000357,0.154263,0.492787
1958,0.000358,0.155781,0.492787
1959,0.000359,0.155781,0.491269
1960,0.00036,0.157299,0.491269
1961,0.000361,0.157299,0.491269
1962,0.000362,0.158817,0.492787
1963,0.000363,0.158817,0.492787
1964,0.000364,0.160335,0.492787
1965,0.000365,0.161853,0.492787
1966,0.000366,0.161853,0.492787
1967,0.000367,0.161853,0.491269
1968,0.000368,0.163371,0.492787
1969,0.000369,0.164889,0.492787
1970,0.00037,0.164889,0.492787
1971,0.000371,0.164889,0.492787
1972,0.000372,0.166407,0.492787
1973,0.000373,0.166407,0.492787
1974,0.000374,0.167925,0.492787
1975,0.000375,0.167925,0.492787
1976,0.000376,0.169443,0.492787
1977,0.000377,0.170961,0.492787
1978,0.000378,0.170961,0.492787
1979,0.000379,0.170961,0.491269
1980,0.00038,0.173997,0.491269
1981,0.000381,0.173997,0.491269
1982,0.000382,0.175515,0.492787
1983,0.000383,0.175515,0.492787
1984,0.000384,0.177034,0.492787
1985,0.000385,0.177034,0.492787
1986,0.000386,0.178552,0.491269
1987,0.000387,0.178552,0.491269
1988,0.000388,0.18007,0.491269
1989,0.000389,0.18007,0.491269
1990,0.00039,0.181588,0.491269
1991,0.000391,0.181588,0.491269
1992,0.000392,0.181588,0.491269
1993,0.000393,0.183106,0.491269
1994,0.000394,0.183106,0.491269
1995,0.000395,0.186142,0.491269
1996,0.000396,0.186142,0.491269
1997,0.000397,0.186142,0.491269
1998,0.000398,0.186142,0.491269
1999,0.000399,0.18766,0.492787
2000,0.0004,0.18766,0.491269
2001,0.000401,0.189178,0.491269
2002,0.000402,0.189178,0.492787
2003,0.000403,0.192214,0.492787
2004,0.000404,0.190696,0.492787
2005,0.000405,0.190696,0.492787
2006,0.000406,0.193732,0.492787
2007,0.000407,0.193732,0.492787
2008,0.000408,0.193732,0.492787
2009,0.000409,0.193732,0.492787
2010,0.00041,0.19525,0.492787
2011,0.000411,0.19525,0.492787
2012,0.000412,0.198286,0.491269
2013,0.000413,0.198286,0.491269
2014,0.000414,0.198286,0.492787
2015,0.000415,0.199804,0.492787
2016,0.000416,0.199804,0.491269
2017,0.000417,0.201322,0.491269
2018,0.000418,0.201322,0.492787
2019,0.000419,0.20284,0.492787
2020,0.00042,0.20284,0.492787
2021,0.000421,0.204358,0.492787
2022,0.000422,0.204358,0.492787
2023,0.000423,0.204358,0.492787
2024,0.000424,0.205876,0.492787
2025,0.000425,0.205876,0.492787
2026,0.000426,0.207394,0.492787
2027,0.000427,0.207394,0.492787
2028,0.000428,0.208912,0.492787
2029,0.000429,0.208912,0.492787
2030,0.00043,0.208912,0.492787
2031,0.000431,0.211949,0.492787
2032,0.000432,0.211949,0.492787
2033,0.000433,0.211949,0.492787
2034,0.000434,0.211949,0.492787
2035,0.000435,0.213467,0.494305
2036,0.000436,0.213467,0.492787
2037,0.000437,0.213467,0.492787
2038,0.000438,0.213467,0.492787
2039,0.000439,0.216503,0.492787
2040,0.00044,0.214985,0.494305
2041,0.000441,0.216503,0.492787
2042,0.000442,0.216503,0.492787
2043,0.000443,0.218021,0.492787
2044,0.000444,0.218021,0.492787
2045,0.000445,0.218021,0.492787
2046,0.000446,0.221057,0.492787
2047,0.000447,0.221057,0.494305
2048,0.000448,0.221057,0.492787
2049,0.000449,0.222575,0.492787
2050,0.00045,0.222575,0.492787
2051,0.000451,0.224093,0.492787
2052,0.000452,0.224093,0.492787
2053,0.000453,0.224093,0.492787
2054,0.000454,0.227129,0.492787
2055,0.000455,0.225611,0.492787
2056,0.000456,0.227129,0.494305
2057,0.000457,0.227129,0.492787
2058,0.000458,0.227129,0.492787
2059,0.000459,0.230165,0.492787
2060,0.00046,0.228647,0.492787
2061,0.000461,0.228647,0.492787
2062,0.000462,0.230165,0.492787
2063,0.000463,0.230165,0.492787
2064,0.000464,0.231683,0.492787
2065,0.000465,0.231683,0.492787
2066,0.000466,0.231683,0.492787
2067,0.000467,0.231683,0.492787
2068,0.000468,0.234719,0.495823
2069,0.000469,0.233201,0.492787
2070,0.00047,0.236237,0.492787
2071,0.000471,0.234719,0.492787
2072,0.000472,0.236237,0.494305
2073,0.000473,0.236237,0.492787
2074,0.000474,0.236237,0.492787
2075,0.000475,0.236237,0.492787
2076,0.000476,0.239273,0.492787
2077,0.000477,0.237755,0.494305
2078,0.000478,0.239273,0.492787
2079,0.000479,0.239273,0.492787
2080,0.00048,0.239273,0.492787
2081,0.000481,0.239273,0.492787
2082,0.000482,0.242309,0.492787
2083,0.000483,0.240791,0.492787
2084,0.000484,0.240791,0.492787
2085,0.000485,0.240791,0.492787
2086,0.000486,0.245346,0.492787
2087,0.000487,0.242309,0.492787
2088,0.000488,0.242309,0.492787
2089,0.000489,0.246864,0.492787
2090,0.00049,0.245346,0.492787
2091,0.000491,0.245346,0.492787
2092,0.000492,0.248382,0.492787
2093,0.000493,0.246864,0.492787
2094,0.000494,0.246864,0.492787
2095,0.000495,0.2499,0.492787
2096,0.000496,0.248382,0.492787
2097,0.000497,0.248382,0.492787
2098,0.000498,0.251418,0.492787
2099,0.000499,0.2499,0.492787
2100,0.0005,0.2499,0.492787
2101,0.000501,0.251418,0.492787
2102,0.000502,0.251418,0.492787
2103,0.000503,0.251418,0.492787
2104,0.000504,0.254454,0.494305
2105,0.000505,0.252936,0.492787
2106,0.000506,0.254454,0.492787
2107,0.000507,0.254454,0.492787
2108,0.000508,0.254454,0.492787
2109,0.000509,0.255972,0.492787
2110,0.00051,0.255972,0.492787
2111,0.000511,0.255972,0.494305
2112,0.000512,0.255972,0.492787
2113,0.000513,0.259008,0.492787
2114,0.000514,0.259008,0.492787
2115,0.000515,0.25749,0.492787
2116,0.000516,0.260526,0.494305
2117,0.000517,0.259008,0.494305
2118,0.000518,0.259008,0.494305
2119,0.000519,0.260526,0.492787
2120,0.00052,0.260526,0.492787
2121,0.000521,0.260526,0.492787
2122,0.000522,0.262044,0.492787
2123,0.000523,0.262044,0.494305
2124,0.000524,0.262044,0.492787
2125,0.000525,0.262044,0.492787
2126,0.000526,0.263562,0.492787
2127,0.000527,0.263562,0.492787
2128,0.000528,0.263562,0.495823
2129,0.000529,0.266598,0.492787
2130,0.00053,0.263562,0.492787
2131,0.000531,0.26508,0.492787
2132,0.000532,0.26508,0.492787
2133,0.000533,0.269634,0.492787
2134,0.000534,0.266598,0.492787
2135,0.000535,0.266598,0.492787
2136,0.000536,0.266598,0.492787
2137,0.000537,0.271152,0.492787
2138,0.000538,0.269634,0.492787
2139,0.000539,0.269634,0.492787
2140,0.00054,0.271152,0.492787
2141,0.000541,0.271152,0.492787
2142,0.000542,0.271152,0.492787
2143,0.000543,0.271152,0.492787
2144,0.000544,0.274188,0.492787
2145,0.000545,0.27267,0.492787
2146,0.000546,0.27267,0.492787
2147,0.000547,0.27267,0.492787
2148,0.000548,0.275706,0.492787
2149,0.000549,0.274188,0.492787
2150,0.00055,0.274188,0.492787
2151,0.000551,0.275706,0.492787
2152,0.000552,0.275706,0.489751
2153,0.000553,0.275706,0.492787
2154,0.000554,0.278742,0.492787
2155,0.000555,0.277224,0.492787
2156,0.000556,0.277224,0.492787
2157,0.000557,0.278742,0.492787
2158,0.000558,0.277224,0.492787
2159,0.000559,0.278742,0.492787
2160,0.00056,0.278742,0.492787
2161,0.000561,0.278742,0.492787
2162,0.000562,0.280261,0.492787
2163,0.000563,0.280261,0.492787
2164,0.000564,0.280261,0.492787
2165,0.000565,0.281779,0.492787
2166,0.000566,0.281779,0.492787
2167,0.000567,0.281779,0.492787
2168,0.000568,0.281779,0.492787
2169,0.000569,0.281779,0.492787
2170,0.00057,0.284815,0.492787
2171,0.000571,0.283297,0.492787
2172,0.000572,0.283297,0.492787
2173,0.000573,0.284815,0.492787
2174,0.000574,0.284815,0.494305
2175,0.000575,0.284815,0.492787
2176,0.000576,0.284815,0.492787
2177,0.000577,0.286333,0.492787
2178,0.000578,0.286333,0.492787
2179,0.000579,0.286333,0.492787
2180,0.00058,0.286333,0.494305
2181,0.000581,0.289369,0.492787
2182,0.000582,0.287851,0.492787
2183,0.000583,0.287851,0.492787
2184,0.000584,0.289369,0.492787
2185,0.000585,0.289369,0.494305
2186,0.000586,0.289369,0.494305
2187,0.000587,0.289369,0.494305
2188,0.000588,0.290887,0.492787
2189,0.000589,0.290887,0.492787
2190,0.00059,0.290887,0.494305
2191,0.000591,0.290887,0.494305
2192,0.000592,0.290887,0.494305
2193,0.000593,0.290887,0.494305
2194,0.000594,0.295441,0.492787
2195,0.000595,0.293923,0.494305
2196,0.000596,0.293923,0.494305
2197,0.000597,0.296959,0.494305
2198,0.000598,0.295441,0.494305
2199,0.000599,0.295441,0.494305
2200,0.0006,0.295441,0.494305
2201,0.000601,0.296959,0.492787
2202,0.000602,0.296959,0.492787
2203,0.000603,0.296959,0.492787
2204,0.000604,0.296959,0.494305
2205,0.000605,0.296959,0.494305
2206,0.000606,0.299995,0.494305
2207,0.000607,0.298477,0.494305
2208,0.000608,0.298477,0.494305
2209,0.000609,0.298477,0.494305
2210,0.00061,0.299995,0.494305
2211,0.000611,0.299995,0.494305
2212,0.000612,0.299995,0.492787
2213,0.000613,0.301513,0.492787
2214,0.000614,0.299995,0.492787
2215,0.000615,0.301513,0.492787
2216,0.000616,0.301513,0.494305
2217,0.000617,0.301513,0.494305
2218,0.000618,0.301513,0.494305
2219,0.000619,0.303031,0.492787
2220,0.00062,0.303031,0.492787
2221,0.000621,0.303031,0.494305
2222,0.000622,0.304549,0.494305
2223,0.000623,0.306067,0.494305
2224,0.000624,0.304549,0.494305
2225,0.000625,0.304549,0.494305
2226,0.000626,0.304549,0.494305
2227,0.000627,0.306067,0.494305
2228,0.000628,0.306067,0.492787
2229,0.000629,0.306067,0.492787
2230,0.00063,0.306067,0.492787
2231,0.000631,0.306067,0.492787
2232,0.000632,0.307585,0.494305
2233,0.000633,0.307585,0.494305
2234,0.000634,0.307585,0.494305
2235,0.000635,0.309103,0.492787
2236,0.000636,0.309103,0.492787
2237,0.000637,0.309103,0.494305
2238,0.000638,0.309103,0.494305
2239,0.000639,0.309103,0.494305
2240,0.00064,0.309103,0.494305
2241,0.000641,0.309103,0.494305
2242,0.000642,0.309103,0.492787
2243,0.000643,0.312139,0.492787
2244,0.000644,0.310621,0.492787
2245,0.000645,0.310621,0.495823
2246,0.000646,0.310621,0.491269
2247,0.000647,0.313657,0.494305
2248,0.000648,0.310621,0.494305
2249,0.000649,0.313657,0.494305
2250,0.00065,0.312139,0.492787
2251,0.000651,0.312139,0.492787
2252,0.000652,0.316694,0.492787
2253,0.000653,0.313657,0.494305
2254,0.000654,0.313657,0.492787
2255,0.000655,0.313657,0.492787
2256,0.000656,0.318212,0.492787
2257,0.000657,0.316694,0.492787
2258,0.000658,0.316694,0.492787
2259,0.000659,0.316694,0.492787
2260,0.00066,0.316694,0.492787
2261,0.000661,0.316694,0.492787
2262,0.000662,0.316694,0.492787
2263,0.000663,0.31973,0.492787
2264,0.000664,0.318212,0.495823
2265,0.000665,0.318212,0.492787
2266,0.000666,0.318212,0.492787
2267,0.000667,0.321248,0.492787
2268,0.000668,0.31973,0.492787
2269,0.000669,0.31973,0.492787
2270,0.00067,0.31973,0.492787
2271,0.000671,0.31973,0.494305
2272,0.000672,0.322766,0.492787
2273,0.000673,0.321248,0.492787
2274,0.000674,0.321248,0.492787
2275,0.000675,0.321248,0.492787
2276,0.000676,0.321248,0.492787
2277,0.000677,0.322766,0.492787
2278,0.000678,0.322766,0.492787
2279,0.000679,0.322766,0.494305
2280,0.00068,0.322766,0.494305
2281,0.000681,0.322766,0.492787
2282,0.000682,0.324284,0.492787
2283,0.000683,0.324284,0.492787
2284,0.000684,0.324284,0.492787
2285,0.000685,0.324284,0.494305
2286,0.000686,0.324284,0.494305
2287,0.000687,0.325802,0.494305
2288,0.000688,0.324284,0.494305
2289,0.000689,0.32732,0.492787
2290,0.00069,0.325802,0.492787
2291,0.000691,0.325802,0.492787
2292,0.000692,0.325802,0.492787
2293,0.000693,0.325802,0.492787
2294,0.000694,0.328838,0.492787
2295,0.000695,0.32732,0.492787
2296,0.000696,0.32732,0.492787
2297,0.000697,0.328838,0.492787
2298,0.000698,0.328838,0.492787
2299,0.000699,0.328838,0.494305
2300,0.0007,0.328838,0.494305
2301,0.000701,0.328838,0.494305
2302,0.000702,0.328838,0.491269
2303,0.000703,0.328838,0.494305
2304,0.000704,0.331874,0.494305
2305,0.000705,0.330356,0.491269
2306,0.000706,0.330356,0.495823
2307,0.000707,0.331874,0.491269
2308,0.000708,0.330356,0.494305
2309,0.000709,0.331874,0.494305
2310,0.00071,0.331874,0.494305
2311,0.000711,0.331874,0.492787
2312,0.000712,0.331874,0.492787
2313,0.000713,0.331874,0.492787
2314,0.000714,0.331874,0.494305
2315,0.000715,0.333392,0.494305
2316,0.000716,0.333392,0.494305
2317,0.000717,0.333392,0.494305
2318,0.000718,0.333392,0.494305
2319,0.000719,0.333392,0.491269
2320,0.00072,0.333392,0.495823
2321,0.000721,0.33491,0.492787
2322,0.000722,0.33491,0.492787
2323,0.000723,0.333392,0.492787
2324,0.000724,0.336428,0.494305
2325,0.000725,0.33491,0.492787
2326,0.000726,0.33491,0.492787
2327,0.000727,0.33491,0.494305
2328,0.000728,0.33491,0.494305
2329,0.000729,0.33491,0.492787
2330,0.00073,0.33491,0.492787
2331,0.000731,0.336428,0.492787
2332,0.000732,0.336428,0.494305
2333,0.000733,0.336428,0.494305
2334,0.000734,0.337946,0.492787
2335,0.000735,0.337946,0.492787
2336,0.000736,0.337946,0.494305
2337,0.000737,0.337946,0.492787
2338,0.000738,0.337946,0.492787
2339,0.000739,0.337946,0.492787
2340,0.00074,0.340982,0.492787
2341,0.000741,0.340982,0.492787
2342,0.000742,0.340982,0.492787
2343,0.000743,0.337946,0.492787
2344,0.000744,0.3425,0.492787
2345,0.000745,0.3425,0.492787
2346,0.000746,0.3425,0.492787
2347,0.000747,0.3425,0.492787
2348,0.000748,0.3425,0.492787
2349,0.000749,0.3425,0.492787
2350,0.00075,0.3425,0.492787
2351,0.000751,0.340982,0.492787
2352,0.000752,0.344018,0.491269
2353,0.000753,0.3425,0.491269
2354,0.000754,0.3425,0.491269
2355,0.000755,0.344018,0.492787
2356,0.000756,0.344018,0.492787
2357,0.000757,0.344018,0.491269
2358,0.000758,0.344018,0.492787
2359,0.000759,0.344018,0.492787
2360,0.00076,0.344018,0.492787
2361,0.000761,0.345536,0.492787
2362,0.000762,0.345536,0.492787
2363,0.000763,0.345536,0.492787
2364,0.000764,0.345536,0.492787
2365,0.000765,0.345536,0.492787
2366,0.000766,0.345536,0.492787
2367,0.000767,0.345536,0.492787
2368,0.000768,0.347054,0.489751
2369,0.000769,0.347054,0.492787
2370,0.00077,0.345536,0.492787
2371,0.000771,0.348573,0.492787
2372,0.000772,0.348573,0.492787
2373,0.000773,0.348573,0.492787
2374,0.000774,0.347054,0.492787
2375,0.000775,0.347054,0.492787
2376,0.000776,0.348573,0.492787
2377,0.000777,0.348573,0.492787
2378,0.000778,0.348573,0.492787
2379,0.000779,0.347054,0.492787
2380,0.00078,0.350091,0.492787
2381,0.000781,0.350091,0.492787
2382,0.000782,0.350091,0.492787
2383,0.000783,0.350091,0.492787
2384,0.000784,0.348573,0.492787
2385,0.000785,0.351609,0.492787
2386,0.000786,0.350091,0.492787
2387,0.000787,0.351609,0.492787
2388,0.000788,0.351609,0.492787
2389,0.000789,0.351609,0.492787
2390,0.00079,0.351609,0.492787
2391,0.000791,0.351609,0.492787
2392,0.000792,0.351609,0.492787
2393,0.000793,0.350091,0.492787
2394,0.000794,0.353127,0.492787
2395,0.000795,0.353127,0.492787
2396,0.000796,0.353127,0.492787
2397,0.000797,0.353127,0.492787
2398,0.000798,0.353127,0.492787
2399,0.000799,0.353127,0.492787
2400,0.0008,0.353127,0.492787
2401,0.000801,0.353127,0.492787
2402,0.000802,0.354645,0.492787
2403,0.000803,0.354645,0.492787
2404,0.000804,0.354645,0.492787
2405,0.000805,0.354645,0.492787
2406,0.000806,0.354645,0.492787
2407,0.000807,0.354645,0.492787
2408,0.000808,0.354645,0.494305
2409,0.000809,0.354645,0.492787
2410,0.00081,0.356163,0.492787
2411,0.000811,0.356163,0.492787
2412,0.000812,0.356163,0.492787
2413,0.000813,0.356163,0.492787
2414,0.000814,0.356163,0.492787
2415,0.000815,0.356163,0.492787
2416,0.000816,0.356163,0.494305
2417,0.000817,0.357681,0.494305
2418,0.000818,0.357681,0.492787
2419,0.000819,0.357681,0.492787
2420,0.00082,0.357681,0.492787
2421,0.000821,0.357681,0.492787
2422,0.000822,0.357681,0.492787
2423,0.000823,0.357681,0.492787
2424,0.000824,0.357681,0.492787
2425,0.000825,0.359199,0.492787
2426,0.000826,0.359199,0.492787
2427,0.000827,0.359199,0.492787
2428,0.000828,0.359199,0.494305
2429,0.000829,0.359199,0.492787
2430,0.00083,0.359199,0.492787
2431,0.000831,0.359199,0.492787
2432,0.000832,0.359199,0.492787
2433,0.000833,0.360717,0.494305
2434,0.000834,0.360717,0.492787
2435,0.000835,0.360717,0.492787
2436,0.000836,0.360717,0.492787
2437,0.000837,0.360717,0.492787
2438,0.000838,0.360717,0.492787
2439,0.000839,0.360717,0.492787
2440,0.00084,0.360717,0.492787
2441,0.000841,0.362235,0.492787
2442,0.000842,0.362235,0.492787
2443,0.000843,0.362235,0.492787
2444,0.000844,0.362235,0.492787
2445,0.000845,0.362235,0.492787
2446,0.000846,0.362235,0.492787
2447,0.000847,0.362235,0.492787
2448,0.000848,0.360717,0.492787
2449,0.000849,0.365271,0.492787
2450,0.00085,0.365271,0.495823
2451,0.000851,0.365271,0.492787
2452,0.000852,0.365271,0.492787
2453,0.000853,0.365271,0.492787
2454,0.000854,0.365271,0.492787
2455,0.000855,0.365271,0.494305
2456,0.000856,0.362235,0.492787
2457,0.000857,0.366789,0.492787
2458,0.000858,0.365271,0.492787
2459,0.000859,0.365271,0.495823
2460,0.00086,0.366789,0.492787
2461,0.000861,0.366789,0.492787
2462,0.000862,0.366789,0.492787
2463,0.000863,0.366789,0.492787
2464,0.000864,0.366789,0.494305
2465,0.000865,0.366789,0.492787
2466,0.000866,0.366789,0.492787
2467,0.000867,0.365271,0.495823
2468,0.000868,0.368307,0.492787
2469,0.000869,0.368307,0.494305
2470,0.00087,0.368307,0.492787
2471,0.000871,0.368307,0.492787
2472,0.000872,0.368307,0.492787
2473,0.000873,0.368307,0.492787
2474,0.000874,0.368307,0.492787
2475,0.000875,0.368307,0.492787
2476,0.000876,0.369825,0.494305
2477,0.000877,0.368307,0.492787
2478,0.000878,0.368307,0.492787
2479,0.000879,0.369825,0.494305
2480,0.00088,0.369825,0.494305
2481,0.000881,0.369825,0.494305
2482,0.000882,0.369825,0.494305
2483,0.000883,0.368307,0.494305
2484,0.000884,0.371343,0.494305
2485,0.000885,0.371343,0.492787
2486,0.000886,0.371343,0.495823
2487,0.000887,0.371343,0.492787
2488,0.000888,0.371343,0.492787
2489,0.000889,0.371343,0.494305
2490,0.00089,0.371343,0.494305
2491,0.000891,0.371343,0.492787
2492,0.000892,0.371343,0.492787
2493,0.000893,0.371343,0.494305
2494,0.000894,0.371343,0.492787
2495,0.000895,0.371343,0.494305
2496,0.000896,0.372861,0.492787
2497,0.000897,0.372861,0.492787
2498,0.000898,0.372861,0.494305
2499,0.000899,0.372861,0.494305
2500,0.0009,0.372861,0.494305
2501,0.000901,0.372861,0.494305
2502,0.000902,0.372861,0.494305
2503,0.000903,0.372861,0.494305
2504,0.000904,0.371343,0.491269
2505,0.000905,0.374379,0.492787
2506,0.000906,0.372861,0.494305
2507,0.000907,0.374379,0.494305
2508,0.000908,0.374379,0.494305
2509,0.000909,0.374379,0.492787
2510,0.00091,0.374379,0.494305
2511,0.000911,0.374379,0.494305
2512,0.000912,0.374379,0.491269
2513,0.000913,0.372861,0.495823
2514,0.000914,0.375897,0.492787
2515,0.000915,0.375897,0.492787
2516,0.000916,0.375897,0.494305
2517,0.000917,0.375897,0.494305
2518,0.000918,0.375897,0.492787
2519,0.000919,0.375897,0.492787
2520,0.00092,0.375897,0.492787
2521,0.000921,0.375897,0.492787
2522,0.000922,0.375897,0.492787
2523,0.000923,0.375897,0.492787
2524,0.000924,0.377415,0.494305
2525,0.000925,0.377415,0.494305
2526,0.000926,0.377415,0.492787
2527,0.000927,0.377415,0.492787
2528,0.000928,0.377415,0.492787
2529,0.000929,0.377415,0.492787
2530,0.00093,0.377415,0.494305
2531,0.000931,0.377415,0.494305
2532,0.000932,0.377415,0.494305
2533,0.000933,0.377415,0.494305
2534,0.000934,0.377415,0.491269
2535,0.000935,0.377415,0.494305
2536,0.000936,0.375897,0.494305
2537,0.000937,0.378933,0.494305
2538,0.000938,0.378933,0.494305
2539,0.000939,0.378933,0.494305
2540,0.00094,0.378933,0.494305
2541,0.000941,0.378933,0.494305
2542,0.000942,0.378933,0.494305
2543,0.000943,0.378933,0.494305
2544,0.000944,0.377415,0.494305
2545,0.000945,0.378933,0.494305
2546,0.000946,0.377415,0.494305
2547,0.000947,0.380451,0.494305
2548,0.000948,0.378933,0.494305
2549,0.000949,0.380451,0.492787
2550,0.00095,0.380451,0.494305
2551,0.000951,0.380451,0.494305
2552,0.000952,0.380451,0.494305
2553,0.000953,0.380451,0.494305
2554,0.000954,0.380451,0.494305
2555,0.000955,0.380451,0.494305
2556,0.000956,0.380451,0.494305
2557,0.000957,0.380451,0.494305
2558,0.000958,0.380451,0.494305
2559,0.000959,0.381969,0.494305
2560,0.00096,0.381969,0.494305
2561,0.000961,0.381969,0.494305
2562,0.000962,0.381969,0.494305
2563,0.000963,0.381969,0.494305
2564,0.000964,0.381969,0.494305
2565,0.000965,0.381969,0.494305
2566,0.000966,0.381969,0.494305
2567,0.000967,0.381969,0.494305
2568,0.000968,0.381969,0.494305
2569,0.000969,0.383488,0.494305
2570,0.00097,0.383488,0.494305
2571,0.000971,0.383488,0.494305
2572,0.000972,0.383488,0.494305
2573,0.000973,0.383488,0.492787
2574,0.000974,0.383488,0.494305
2575,0.000975,0.383488,0.494305
2576,0.000976,0.383488,0.494305
2577,0.000977,0.383488,0.494305
2578,0.000978,0.383488,0.494305
2579,0.000979,0.383488,0.494305
2580,0.00098,0.381969,0.494305
2581,0.000981,0.385006,0.494305
2582,0.000982,0.385006,0.494305
2583,0.000983,0.385006,0.494305
2584,0.000984,0.385006,0.494305
2585,0.000985,0.385006,0.494305
2586,0.000986,0.385006,0.494305
2587,0.000987,0.385006,0.494305
2588,0.000988,0.385006,0.494305
2589,0.000989,0.385006,0.494305
2590,0.00099,0.385006,0.494305
2591,0.000991,0.385006,0.494305
2592,0.000992,0.383488,0.494305
2593,0.000993,0.385006,0.494305
2594,0.000994,0.386524,0.494305
2595,0.000995,0.385006,0.494305
2596,0.000996,0.385006,0.494305
2597,0.000997,0.386524,0.494305
2598,0.000998,0.386524,0.494305
2599,0.000999,0.386524,0.494305
2600,0.001,0.386524,0.494305
2601,0.001001,0.386524,0.494305
2602,0.001002,0.386524,0.494305
2603,0.001003,0.386524,0.494305
2604,0.001004,0.386524,0.494305
2605,0.001005,0.386524,0.494305
2606,0.001006,0.386524,0.494305
2607,0.001007,0.386524,0.492787
2608,0.001008,0.386524,0.494305
2609,0.001009,0.386524,0.494305
2610,0.00101,0.386524,0.494305
2611,0.001011,0.385006,0.492787
2612,0.001012,0.38956,0.492787
2613,0.001013,0.38956,0.492787
2614,0.001014,0.38956,0.494305
2615,0.001015,0.38956,0.494305
2616,0.001016,0.38956,0.492787
2617,0.001017,0.38956,0.492787
2618,0.001018,0.38956,0.492787
2619,0.001019,0.38956,0.492787
2620,0.00102,0.386524,0.492787
2621,0.001021,0.391078,0.492787
2622,0.001022,0.38956,0.492787
2623,0.001023,0.386524,0.494305
2624,0.001024,0.391078,0.492787
2625,0.001025,0.391078,0.492787
2626,0.001026,0.391078,0.495823
2627,0.001027,0.391078,0.492787
2628,0.001028,0.391078,0.492787
2629,0.001029,0.391078,0.492787
2630,0.00103,0.391078,0.494305
2631,0.001031,0.391078,0.492787
2632,0.001032,0.391078,0.492787
2633,0.001033,0.391078,0.492787
2634,0.001034,0.391078,0.492787
2635,0.001035,0.391078,0.494305
2636,0.001036,0.391078,0.492787
2637,0.001037,0.38956,0.492787
2638,0.001038,0.392596,0.492787
2639,0.001039,0.392596,0.492787
2640,0.00104,0.392596,0.492787
2641,0.001041,0.392596,0.494305
2642,0.001042,0.392596,0.492787
2643,0.001043,0.392596,0.494305
2644,0.001044,0.392596,0.494305
2645,0.001045,0.392596,0.492787
2646,0.001046,0.392596,0.492787
2647,0.001047,0.392596,0.492787
2648,0.001048,0.392596,0.494305
2649,0.001049,0.392596,0.492787
2650,0.00105,0.391078,0.492787
2651,0.001051,0.394114,0.492787
2652,0.001052,0.391078,0.495823
2653,0.001053,0.394114,0.492787
2654,0.001054,0.394114,0.492787
2655,0.001055,0.394114,0.492787
2656,0.001056,0.394114,0.492787
2657,0.001057,0.394114,0.492787
2658,0.001058,0.394114,0.492787
2659,0.001059,0.394114,0.494305
2660,0.00106,0.394114,0.492787
2661,0.001061,0.394114,0.495823
2662,0.001062,0.394114,0.492787
2663,0.001063,0.394114,0.492787
2664,0.001064,0.394114,0.492787
2665,0.001065,0.394114,0.495823
2666,0.001066,0.394114,0.492787
2667,0.001067,0.392596,0.492787
2668,0.001068,0.39715,0.492787
2669,0.001069,0.394114,0.494305
2670,0.00107,0.395632,0.492787
2671,0.001071,0.395632,0.492787
2672,0.001072,0.395632,0.492787
2673,0.001073,0.395632,0.495823
2674,0.001074,0.395632,0.492787
2675,0.001075,0.395632,0.492787
2676,0.001076,0.395632,0.492787
2677,0.001077,0.395632,0.492787
2678,0.001078,0.395632,0.494305
2679,0.001079,0.394114,0.491269
2680,0.00108,0.39715,0.494305
2681,0.001081,0.39715,0.494305
2682,0.001082,0.395632,0.494305
2683,0.001083,0.395632,0.491269
2684,0.001084,0.395632,0.494305
2685,0.001085,0.39715,0.494305
2686,0.001086,0.39715,0.491269
2687,0.001087,0.39715,0.494305
2688,0.001088,0.39715,0.494305
2689,0.001089,0.39715,0.492787
2690,0.00109,0.39715,0.494305
2691,0.001091,0.39715,0.492787
2692,0.001092,0.39715,0.494305
2693,0.001093,0.39715,0.494305
2694,0.001094,0.39715,0.494305
2695,0.001095,0.39715,0.492787
2696,0.001096,0.39715,0.494305
2697,0.001097,0.398668,0.492787
2698,0.001098,0.395632,0.492787
2699,0.001099,0.398668,0.492787
2700,0.0011,0.398668,0.494305
2701,0.001101,0.398668,0.492787
2702,0.001102,0.398668,0.494305
2703,0.001103,0.398668,0.492787
2704,0.001104,0.398668,0.492787
2705,0.001105,0.398668,0.492787
2706,0.001106,0.398668,0.494305
2707,0.001107,0.398668,0.494305
2708,0.001108,0.398668,0.494305
2709,0.001109,0.39715,0.491269
2710,0.00111,0.400186,0.492787
2711,0.001111,0.39715,0.494305
2712,0.001112,0.400186,0.494305
2713,0.001113,0.400186,0.494305
2714,0.001114,0.400186,0.494305
2715,0.001115,0.400186,0.494305
2716,0.001116,0.400186,0.494305
2717,0.001117,0.400186,0.494305
2718,0.001118,0.400186,0.494305
2719,0.001119,0.400186,0.494305
2720,0.00112,0.400186,0.492787
2721,0.001121,0.400186,0.492787
2722,0.001122,0.400186,0.494305
2723,0.001123,0.400186,0.494305
2724,0.001124,0.400186,0.494305
2725,0.001125,0.400186,0.494305
2726,0.001126,0.400186,0.494305
2727,0.001127,0.400186,0.494305
2728,0.001128,0.400186,0.494305
2729,0.001129,0.400186,0.494305
2730,0.00113,0.398668,0.494305
2731,0.001131,0.401704,0.494305
2732,0.001132,0.401704,0.494305
2733,0.001133,0.401704,0.494305
2734,0.001134,0.401704,0.494305
2735,0.001135,0.401704,0.494305
2736,0.001136,0.401704,0.494305
2737,0.001137,0.401704,0.494305
2738,0.001138,0.401704,0.494305
2739,0.001139,0.401704,0.494305
2740,0.00114,0.401704,0.494305
2741,0.001141,0.401704,0.494305
2742,0.001142,0.401704,0.494305
2743,0.001143,0.401704,0.494305
2744,0.001144,0.401704,0.494305
2745,0.001145,0.403222,0.494305
2746,0.001146,0.400186,0.494305
2747,0.001147,0.401704,0.494305
2748,0.001148,0.400186,0.494305
2749,0.001149,0.40474,0.494305
2750,0.00115,0.401704,0.494305
2751,0.001151,0.403222,0.494305
2752,0.001152,0.403222,0.494305
2753,0.001153,0.403222,0.492787
2754,0.001154,0.403222,0.494305
2755,0.001155,0.403222,0.494305
2756,0.001156,0.403222,0.494305
2757,0.001157,0.403222,0.494305
2758,0.001158,0.403222,0.492787
2759,0.001159,0.403222,0.494305
2760,0.00116,0.403222,0.494305
2761,0.001161,0.403222,0.494305
2762,0.001162,0.403222,0.491269
2763,0.001163,0.403222,0.494305
2764,0.001164,0.403222,0.494305
2765,0.001165,0.403222,0.494305
2766,0.001166,0.401704,0.494305
2767,0.001167,0.40474,0.494305
2768,0.001168,0.401704,0.494305
2769,0.001169,0.40474,0.494305
2770,0.00117,0.401704,0.494305
2771,0.001171,0.40474,0.494305
2772,0.001172,0.40474,0.494305
2773,0.001173,0.40474,0.494305
2774,0.001174,0.40474,0.494305
2775,0.001175,0.40474,0.494305
2776,0.001176,0.40474,0.492787
2777,0.001177,0.40474,0.492787
2778,0.001178,0.40474,0.492787
2779,0.001179,0.40474,0.492787
2780,0.00118,0.40474,0.494305
2781,0.001181,0.40474,0.492787
2782,0.001182,0.40474,0.492787
2783,0.001183,0.40474,0.492787
2784,0.001184,0.403222,0.492787
2785,0.001185,0.406258,0.494305
2786,0.001186,0.403222,0.492787
2787,0.001187,0.40474,0.492787
2788,0.001188,0.40474,0.492787
2789,0.001189,0.40474,0.492787
2790,0.00119,0.406258,0.492787
2791,0.001191,0.406258,0.494305
2792,0.001192,0.406258,0.492787
2793,0.001193,0.40474,0.492787
2794,0.001194,0.40474,0.492787
2795,0.001195,0.406258,0.492787
2796,0.001196,0.406258,0.495823
2797,0.001197,0.406258,0.492787
2798,0.001198,0.406258,0.492787
2799,0.001199,0.406258,0.494305
2800,0.0012,0.406258,0.492787
2801,0.001201,0.406258,0.494305
2802,0.001202,0.406258,0.494305
2803,0.001203,0.406258,0.494305
2804,0.001204,0.406258,0.494305
2805,0.001205,0.406258,0.494305
2806,0.001206,0.406258,0.491269
2807,0.001207,0.406258,0.495823
2808,0.001208,0.406258,0.492787
2809,0.001209,0.406258,0.492787
2810,0.00121,0.406258,0.492787
2811,0.001211,0.406258,0.494305
2812,0.001212,0.406258,0.492787
2813,0.001213,0.406258,0.492787
2814,0.001214,0.40474,0.492787
2815,0.001215,0.407776,0.492787
2816,0.001216,0.407776,0.494305
2817,0.001217,0.406258,0.492787
2818,0.001218,0.40474,0.492787
2819,0.001219,0.406258,0.492787
2820,0.00122,0.407776,0.492787
2821,0.001221,0.406258,0.492787
2822,0.001222,0.407776,0.492787
2823,0.001223,0.407776,0.492787
2824,0.001224,0.407776,0.492787
2825,0.001225,0.407776,0.492787
2826,0.001226,0.407776,0.492787
2827,0.001227,0.407776,0.492787
2828,0.001228,0.407776,0.492787
2829,0.001229,0.407776,0.492787
2830,0.00123,0.407776,0.494305
2831,0.001231,0.407776,0.492787
2832,0.001232,0.407776,0.492787
2833,0.001233,0.407776,0.492787
2834,0.001234,0.407776,0.492787
2835,0.001235,0.407776,0.494305
2836,0.001236,0.407776,0.494305
2837,0.001237,0.407776,0.494305
2838,0.001238,0.407776,0.494305
2839,0.001239,0.409294,0.494305
2840,0.00124,0.409294,0.494305
2841,0.001241,0.407776,0.494305
2842,0.001242,0.409294,0.494305
2843,0.001243,0.409294,0.492787
2844,0.001244,0.409294,0.492787
2845,0.001245,0.409294,0.494305
2846,0.001246,0.409294,0.494305
2847,0.001247,0.409294,0.494305
2848,0.001248,0.409294,0.492787
2849,0.001249,0.409294,0.492787
2850,0.00125,0.409294,0.492787
2851,0.001251,0.409294,0.494305
2852,0.001252,0.409294,0.491269
2853,0.001253,0.409294,0.494305
2854,0.001254,0.409294,0.494305
2855,0.001255,0.409294,0.494305
2856,0.001256,0.407776,0.494305
2857,0.001257,0.41233,0.494305
2858,0.001258,0.407776,0.492787
2859,0.001259,0.409294,0.494305
2860,0.00126,0.409294,0.492787
2861,0.001261,0.41233,0.492787
2862,0.001262,0.409294,0.494305
2863,0.001263,0.41233,0.494305
2864,0.001264,0.409294,0.494305
2865,0.001265,0.41233,0.492787
2866,0.001266,0.41233,0.494305
2867,0.001267,0.41233,0.494305
2868,0.001268,0.41233,0.492787
2869,0.001269,0.41233,0.492787
2870,0.00127,0.41233,0.494305
2871,0.001271,0.41233,0.492787
2872,0.001272,0.41233,0.494305
2873,0.001273,0.41233,0.492787
2874,0.001274,0.41233,0.492787
2875,0.001275,0.41233,0.494305
2876,0.001276,0.41233,0.494305
2877,0.001277,0.41233,0.494305
2878,0.001278,0.41233,0.494305
2879,0.001279,0.41233,0.494305
2880,0.00128,0.41233,0.494305
2881,0.001281,0.41233,0.494305
2882,0.001282,0.409294,0.492787
2883,0.001283,0.413848,0.492787
2884,0.001284,0.409294,0.492787
2885,0.001285,0.41233,0.494305
2886,0.001286,0.41233,0.494305
2887,0.001287,0.413848,0.492787
2888,0.001288,0.41233,0.492787
2889,0.001289,0.41233,0.492787
2890,0.00129,0.41233,0.495823
2891,0.001291,0.413848,0.492787
2892,0.001292,0.413848,0.492787
2893,0.001293,0.413848,0.494305
2894,0.001294,0.413848,0.494305
2895,0.001295,0.413848,0.494305
2896,0.001296,0.413848,0.491269
2897,0.001297,0.413848,0.494305
2898,0.001298,0.413848,0.494305
2899,0.001299,0.413848,0.494305
2900,0.0013,0.413848,0.494305
2901,0.001301,0.413848,0.491269
2902,0.001302,0.413848,0.494305
2903,0.001303,0.413848,0.494305
2904,0.001304,0.413848,0.492787
2905,0.001305,0.413848,0.492787
2906,0.001306,0.413848,0.492787
2907,0.001307,0.413848,0.494305
2908,0.001308,0.413848,0.494305
2909,0.001309,0.413848,0.494305
2910,0.00131,0.413848,0.494305
2911,0.001311,0.413848,0.491269
2912,0.001312,0.413848,0.494305
2913,0.001313,0.413848,0.492787
2914,0.001314,0.41233,0.495823
2915,0.001315,0.415366,0.492787
2916,0.001316,0.415366,0.492787
2917,0.001317,0.41233,0.492787
2918,0.001318,0.413848,0.494305
2919,0.001319,0.415366,0.492787
2920,0.00132,0.415366,0.492787
2921,0.001321,0.415366,0.492787
2922,0.001322,0.415366,0.492787
2923,0.001323,0.415366,0.492787
2924,0.001324,0.415366,0.495823
2925,0.001325,0.415366,0.491269
2926,0.001326,0.415366,0.495823
2927,0.001327,0.415366,0.492787
2928,0.001328,0.415366,0.492787
2929,0.001329,0.415366,0.494305
2930,0.00133,0.415366,0.492787
2931,0.001331,0.415366,0.492787
2932,0.001332,0.415366,0.494305
2933,0.001333,0.415366,0.494305
2934,0.001334,0.415366,0.494305
2935,0.001335,0.415366,0.494305
2936,0.001336,0.416885,0.494305
2937,0.001337,0.413848,0.494305
2938,0.001338,0.415366,0.491269
2939,0.001339,0.413848,0.495823
2940,0.00134,0.415366,0.492787
2941,0.001341,0.416885,0.492787
2942,0.001342,0.416885,0.492787
2943,0.001343,0.413848,0.492787
2944,0.001344,0.415366,0.492787
2945,0.001345,0.415366,0.492787
2946,0.001346,0.416885,0.492787
2947,0.001347,0.416885,0.494305
2948,0.001348,0.416885,0.492787
2949,0.001349,0.416885,0.494305
2950,0.00135,0.415366,0.494305
2951,0.001351,0.416885,0.491269
2952,0.001352,0.416885,0.494305
2953,0.001353,0.416885,0.494305
2954,0.001354,0.416885,0.494305
2955,0.001355,0.416885,0.494305
2956,0.001356,0.416885,0.492787
2957,0.001357,0.416885,0.492787
2958,0.001358,0.416885,0.492787
2959,0.001359,0.416885,0.492787
2960,0.00136,0.416885,0.495823
2961,0.001361,0.416885,0.492787
2962,0.001362,0.416885,0.492787
2963,0.001363,0.416885,0.492787
2964,0.001364,0.416885,0.494305
2965,0.001365,0.416885,0.494305
2966,0.001366,0.416885,0.494305
2967,0.001367,0.416885,0.492787
2968,0.001368,0.416885,0.492787
2969,0.001369,0.416885,0.494305
2970,0.00137,0.415366,0.492787
2971,0.001371,0.418403,0.492787
2972,0.001372,0.416885,0.492787
2973,0.001373,0.415366,0.494305
2974,0.001374,0.418403,0.494305
2975,0.001375,0.418403,0.492787
2976,0.001376,0.418403,0.492787
2977,0.001377,0.418403,0.492787
2978,0.001378,0.418403,0.492787
2979,0.001379,0.416885,0.492787
2980,0.00138,0.416885,0.492787
2981,0.001381,0.418403,0.492787
2982,0.001382,0.418403,0.494305
2983,0.001383,0.418403,0.494305
2984,0.001384,0.418403,0.491269
2985,0.001385,0.418403,0.494305
2986,0.001386,0.418403,0.494305
2987,0.001387,0.418403,0.494305
2988,0.001388,0.418403,0.492787
2989,0.001389,0.418403,0.492787
2990,0.00139,0.418403,0.494305
2991,0.001391,0.418403,0.494305
2992,0.001392,0.418403,0.494305
2993,0.001393,0.418403,0.494305
2994,0.001394,0.418403,0.492787
2995,0.001395,0.418403,0.492787
2996,0.001396,0.418403,0.492787
2997,0.001397,0.418403,0.494305
2998,0.001398,0.418403,0.491269
2999,0.001399,0.418403,0.494305
3000,0.0014,0.418403,0.494305
3001,0.001401,0.418403,0.494305
3002,0.001402,0.418403,0.494305
3003,0.001403,0.418403,0.494305
3004,0.001404,0.418403,0.492787
3005,0.001405,0.419921,0.492787
3006,0.001406,0.419921,0.494305
3007,0.001407,0.416885,0.494305
3008,0.001408,0.418403,0.494305
3009,0.001409,0.418403,0.492787
3010,0.00141,0.418403,0.492787
3011,0.001411,0.419921,0.492787
3012,0.001412,0.419921,0.494305
3013,0.001413,0.419921,0.492787
3014,0.001414,0.418403,0.492787
3015,0.001415,0.418403,0.492787
3016,0.001416,0.419921,0.494305
3017,0.001417,0.419921,0.494305
3018,0.001418,0.419921,0.494305
3019,0.001419,0.419921,0.494305
3020,0.00142,0.419921,0.494305
3021,0.001421,0.419921,0.494305
3022,0.001422,0.419921,0.494305
3023,0.001423,0.419921,0.492787
3024,0.001424,0.419921,0.492787
3025,0.001425,0.419921,0.494305
3026,0.001426,0.419921,0.494305
3027,0.001427,0.419921,0.494305
3028,0.001428,0.419921,0.494305
3029,0.001429,0.419921,0.494305
3030,0.00143,0.419921,0.494305
3031,0.001431,0.419921,0.491269
3032,0.001432,0.419921,0.494305
3033,0.001433,0.419921,0.492787
3034,0.001434,0.419921,0.492787
3035,0.001435,0.419921,0.494305
3036,0.001436,0.418403,0.492787
3037,0.001437,0.421439,0.494305
3038,0.001438,0.419921,0.494305
3039,0.001439,0.419921,0.494305
3040,0.00144,0.419921,0.494305
3041,0.001441,0.418403,0.492787
3042,0.001442,0.421439,0.492787
3043,0.001443,0.419921,0.494305
3044,0.001444,0.418403,0.494305
3045,0.001445,0.421439,0.494305
3046,0.001446,0.421439,0.494305
3047,0.001447,0.421439,0.494305
3048,0.001448,0.421439,0.494305
3049,0.001449,0.421439,0.494305
3050,0.00145,0.421439,0.492787
3051,0.001451,0.421439,0.492787
3052,0.001452,0.421439,0.494305
3053,0.001453,0.421439,0.494305
3054,0.001454,0.421439,0.494305
3055,0.001455,0.421439,0.492787
3056,0.001456,0.421439,0.492787
3057,0.001457,0.421439,0.492787
3058,0.001458,0.421439,0.492787
3059,0.001459,0.421439,0.494305
3060,0.00146,0.421439,0.492787
3061,0.001461,0.421439,0.492787
3062,0.001462,0.421439,0.492787
3063,0.001463,0.421439,0.492787
3064,0.001464,0.421439,0.492787
3065,0.001465,0.421439,0.494305
3066,0.001466,0.421439,0.492787
3067,0.001467,0.421439,0.492787
3068,0.001468,0.421439,0.494305
3069,0.001469,0.419921,0.494305
3070,0.00147,0.422957,0.492787
3071,0.001471,0.421439,0.494305
3072,0.001472,0.421439,0.492787
3073,0.001473,0.421439,0.494305
3074,0.001474,0.421439,0.492787
3075,0.001475,0.422957,0.492787
3076,0.001476,0.419921,0.494305
3077,0.001477,0.422957,0.492787
3078,0.001478,0.421439,0.492787
3079,0.001479,0.422957,0.494305
3080,0.00148,0.419921,0.492787
3081,0.001481,0.422957,0.492787
3082,0.001482,0.419921,0.494305
3083,0.001483,0.421439,0.494305
3084,0.001484,0.422957,0.494305
3085,0.001485,0.422957,0.492787
3086,0.001486,0.422957,0.492787
3087,0.001487,0.422957,0.492787
3088,0.001488,0.421439,0.494305
3089,0.001489,0.422957,0.494305
3090,0.00149,0.422957,0.492787
3091,0.001491,0.422957,0.494305
3092,0.001492,0.422957,0.494305
3093,0.001493,0.422957,0.494305
3094,0.001494,0.422957,0.494305
3095,0.001495,0.422957,0.494305
3096,0.001496,0.422957,0.494305
3097,0.001497,0.422957,0.492787
3098,0.001498,0.422957,0.492787
3099,0.001499,0.422957,0.494305
3100,0.0015,0.422957,0.494305
3101,0.001501,0.422957,0.494305
3102,0.001502,0.422957,0.492787
3103,0.001503,0.422957,0.492787
3104,0.001504,0.422957,0.492787
3105,0.001505,0.422957,0.492787
3106,0.001506,0.424475,0.494305
3107,0.001507,0.421439,0.494305
3108,0.001508,0.422957,0.494305
3109,0.001509,0.422957,0.494305
3110,0.00151,0.422957,0.494305
3111,0.001511,0.422957,0.494305
3112,0.001512,0.422957,0.494305
3113,0.001513,0.422957,0.494305
3114,0.001514,0.421439,0.492787
3115,0.001515,0.424475,0.492787
3116,0.001516,0.422957,0.494305
3117,0.001517,0.424475,0.494305
3118,0.001518,0.424475,0.492787
3119,0.001519,0.422957,0.494305
3120,0.00152,0.424475,0.494305
3121,0.001521,0.424475,0.494305
3122,0.001522,0.424475,0.492787
3123,0.001523,0.424475,0.495823
3124,0.001524,0.422957,0.492787
3125,0.001525,0.424475,0.492787
3126,0.001526,0.424475,0.494305
3127,0.001527,0.424475,0.494305
3128,0.001528,0.424475,0.494305
3129,0.001529,0.424475,0.494305
3130,0.00153,0.424475,0.492787
3131,0.001531,0.424475,0.494305
3132,0.001532,0.424475,0.494305
3133,0.001533,0.424475,0.494305
3134,0.001534,0.424475,0.492787
3135,0.001535,0.424475,0.492787
3136,0.001536,0.424475,0.494305
3137,0.001537,0.424475,0.494305
3138,0.001538,0.424475,0.491269
3139,0.001539,0.424475,0.494305
3140,0.00154,0.424475,0.494305
3141,0.001541,0.424475,0.492787
3142,0.001542,0.424475,0.492787
3143,0.001543,0.425993,0.492787
3144,0.001544,0.422957,0.494305
3145,0.001545,0.425993,0.492787
3146,0.001546,0.422957,0.494305
3147,0.001547,0.424475,0.494305
3148,0.001548,0.424475,0.492787
3149,0.001549,0.424475,0.492787
3150,0.00155,0.424475,0.492787
3151,0.001551,0.424475,0.494305
3152,0.001552,0.424475,0.492787
3153,0.001553,0.422957,0.494305
3154,0.001554,0.425993,0.492787
3155,0.001555,0.424475,0.492787
3156,0.001556,0.422957,0.492787
3157,0.001557,0.425993,0.494305
3158,0.001558,0.424475,0.494305
3159,0.001559,0.425993,0.494305
3160,0.00156,0.422957,0.494305
3161,0.001561,0.422957,0.494305
3162,0.001562,0.425993,0.492787
3163,0.001563,0.422957,0.494305
3164,0.001564,0.427511,0.494305
3165,0.001565,0.424475,0.494305
3166,0.001566,0.425993,0.494305
3167,0.001567,0.425993,0.494305
3168,0.001568,0.425993,0.494305
3169,0.001569,0.425993,0.494305
3170,0.00157,0.425993,0.494305
3171,0.001571,0.425993,0.494305
3172,0.001572,0.425993,0.492787
3173,0.001573,0.425993,0.494305
3174,0.001574,0.425993,0.494305
3175,0.001575,0.425993,0.492787
3176,0.001576,0.425993,0.492787
3177,0.001577,0.425993,0.492787
3178,0.001578,0.425993,0.494305
3179,0.001579,0.425993,0.494305
3180,0.00158,0.425993,0.494305
3181,0.001581,0.425993,0.494305
3182,0.001582,0.425993,0.494305
3183,0.001583,0.425993,0.494305
3184,0.001584,0.425993,0.494305
3185,0.001585,0.425993,0.494305
3186,0.001586,0.425993,0.492787
3187,0.001587,0.425993,0.494305
3188,0.001588,0.425993,0.494305
3189,0.001589,0.425993,0.494305
3190,0.00159,0.425993,0.494305
3191,0.001591,0.425993,0.492787
3192,0.001592,0.425993,0.492787
3193,0.001593,0.425993,0.492787
3194,0.001594,0.425993,0.492787
3195,0.001595,0.425993,0.492787
3196,0.001596,0.425993,0.492787
3197,0.001597,0.427511,0.494305
3198,0.001598,0.424475,0.494305
3199,0.001599,0.424475,0.492787
